# Begin of measurement: 19.07.2019 15:29:01
# R-Sample[Ohm]	I-Coil[A]	U-Magnetometer[V]
# Kei2000	HP E3631A +6V : I	Kei2000
4.92572662E+2	2.87489500E-1	1.48479536E+0
4.92624895E+2	2.87481700E-1	1.48481543E+0
4.92804417E+2	2.87547800E-1	1.48487656E+0
4.92261475E+2	2.87625600E-1	1.48480171E+0
4.92375847E+2	2.87516700E-1	1.48486225E+0
4.92452395E+2	2.87446800E-1	1.48486820E+0
4.92630797E+2	2.87524500E-1	1.48488685E+0
4.93429285E+2	2.87613900E-1	1.48484428E+0
4.93321577E+2	2.87637200E-1	1.48480206E+0
4.92287165E+2	2.87625600E-1	1.48483757E+0
4.92123982E+2	2.87621700E-1	1.48480403E+0
4.92065445E+2	2.87493400E-1	1.48477112E+0
4.91543296E+2	2.87633300E-1	1.48478270E+0
4.91891230E+2	2.87520600E-1	1.48480121E+0
4.91838637E+2	2.87645000E-1	1.48481991E+0
4.91807433E+2	2.87462300E-1	1.48478713E+0
4.92112095E+2	2.87470100E-1	1.48471361E+0
4.92548960E+2	2.87407900E-1	1.48476405E+0
4.92783963E+2	2.87458400E-1	1.48475506E+0
4.92551121E+2	2.87528400E-1	1.48480572E+0
4.92096560E+2	2.87633300E-1	1.48481941E+0
4.91931666E+2	2.87590600E-1	1.48484803E+0
4.91582046E+2	2.87419600E-1	1.48481248E+0
4.91566466E+2	2.87625600E-1	1.48482075E+0
4.91532965E+2	2.87637200E-1	1.48480148E+0
4.91442233E+2	2.87485600E-1	1.48484503E+0
4.90991319E+2	2.87575000E-1	1.48485469E+0
4.91325834E+2	2.87446800E-1	1.48481628E+0
4.91186133E+2	2.87505100E-1	1.48481239E+0
4.90943970E+2	2.87590600E-1	1.48476575E+0
4.90779166E+2	2.87578900E-1	1.48478198E+0
4.90655833E+2	2.87427300E-1	1.48482352E+0
4.90604051E+2	2.87610000E-1	1.48476932E+0
4.90989088E+2	2.87637200E-1	1.48477419E+0
4.90551107E+2	2.87629400E-1	1.48479427E+0
4.90616705E+2	2.87625600E-1	1.48479995E+0
4.91071581E+2	2.87489500E-1	1.48478514E+0
4.90387105E+2	2.87458400E-1	1.48477281E+0
4.90816586E+2	2.87501200E-1	1.48484016E+0
4.90831085E+2	2.87645000E-1	1.48485541E+0
4.92001602E+2	2.87606100E-1	1.48479110E+0
4.92086723E+2	2.87439000E-1	1.48481463E+0
4.92354957E+2	2.87435100E-1	1.48480487E+0
4.91996125E+2	2.87648900E-1	1.48481368E+0
4.91126402E+2	2.87477900E-1	1.48484239E+0
4.91500858E+2	2.87485600E-1	1.48483206E+0
4.91536701E+2	2.87641100E-1	1.48482960E+0
4.91659604E+2	2.87536100E-1	1.48481493E+0
4.91132592E+2	2.87602300E-1	1.48481082E+0
4.92339713E+2	2.87497300E-1	1.48478434E+0
4.91590531E+2	2.87590600E-1	1.48482356E+0
4.91608137E+2	2.87466200E-1	1.48486180E+0
4.91810720E+2	2.87528400E-1	1.48485683E+0
4.91861182E+2	2.87450600E-1	1.48481663E+0
4.92178569E+2	2.87602300E-1	1.48481654E+0
4.91869089E+2	2.87466200E-1	1.48479078E+0
4.92317751E+2	2.87466200E-1	1.48479472E+0
4.91574378E+2	2.87586700E-1	1.48482911E+0
4.92053075E+2	2.87524500E-1	1.48482074E+0
4.93336383E+2	2.87563400E-1	1.48481583E+0
4.92175372E+2	2.87621700E-1	1.48481010E+0
4.91510303E+2	2.87598400E-1	1.48478738E+0
4.91216447E+2	2.87602300E-1	1.48482039E+0
4.90518913E+2	2.87571100E-1	1.48482070E+0
4.90926285E+2	2.87594500E-1	1.48481565E+0
4.91127606E+2	2.87637200E-1	1.48481820E+0
4.91736222E+2	2.87501200E-1	1.48485401E+0
4.92519805E+2	2.87602300E-1	1.48483733E+0
4.92642508E+2	2.87454500E-1	1.48478644E+0
4.93663030E+2	2.87477900E-1	1.48485446E+0
4.93963234E+2	2.87493400E-1	1.48485897E+0
4.95623159E+2	2.87528400E-1	1.48488665E+0
4.97006020E+2	2.87602300E-1	1.48485271E+0
4.98154352E+2	2.87617800E-1	1.48486920E+0
4.99873490E+2	2.87508900E-1	1.48487092E+0
5.01260860E+2	2.87512900E-1	1.48488402E+0
5.02198035E+2	2.87613900E-1	1.48490924E+0
5.03512728E+2	2.87540100E-1	1.48485580E+0
5.05077942E+2	2.87516700E-1	1.48490039E+0
5.06869054E+2	2.87477900E-1	1.48488956E+0
5.08098644E+2	2.87493400E-1	1.48488697E+0
5.09416669E+2	2.87590600E-1	1.48488232E+0
5.11550969E+2	2.87505100E-1	1.48490602E+0
5.13468006E+2	2.87645000E-1	1.48485437E+0
5.14238667E+2	2.87610000E-1	1.48488411E+0
5.16351104E+2	2.87578900E-1	1.48485920E+0
5.18331317E+2	2.87446800E-1	1.48487754E+0
5.19815227E+2	2.87629400E-1	1.48483948E+0
5.21434988E+2	2.87617800E-1	1.48486989E+0
5.23113016E+2	2.87466200E-1	1.48483854E+0
5.25336428E+2	2.87411800E-1	1.48478922E+0
5.26394460E+2	2.87551700E-1	1.48479427E+0
5.27444341E+2	2.87485600E-1	1.48483246E+0
5.29396682E+2	2.87497300E-1	1.48480143E+0
5.30814040E+2	2.87505100E-1	1.48482906E+0
5.33096574E+2	2.87598400E-1	1.48484690E+0
5.34640913E+2	2.87493400E-1	1.48486175E+0
5.36044717E+2	2.87493400E-1	1.48486153E+0
5.37684741E+2	2.87645000E-1	1.48486175E+0
5.39678193E+2	2.87485600E-1	1.48487373E+0
5.42208788E+2	2.87485600E-1	1.48487002E+0
5.43839311E+2	2.87575000E-1	1.48484006E+0
5.45119197E+2	2.87466200E-1	1.48486560E+0
5.47315170E+2	2.87648900E-1	1.48487414E+0
5.49056494E+2	2.87551700E-1	1.48487856E+0
5.50563730E+2	2.87586700E-1	1.48490156E+0
5.52631615E+2	2.87470100E-1	1.48487718E+0
5.54193875E+2	2.87454500E-1	1.48486775E+0
5.56222360E+2	2.87474000E-1	1.48485049E+0
5.59068380E+2	2.87652800E-1	1.48490003E+0
5.60828565E+2	2.87532300E-1	1.48488608E+0
5.62793875E+2	2.87536100E-1	1.48486887E+0
5.65581628E+2	2.87543900E-1	1.48486364E+0
5.66936893E+2	2.87462300E-1	1.48489772E+0
5.69259234E+2	2.87656600E-1	1.48492428E+0
5.70994944E+2	2.87633300E-1	1.48487411E+0
5.71982733E+2	2.87613900E-1	1.48487598E+0
5.74579611E+2	2.87423400E-1	1.48482504E+0
5.76730347E+2	2.87520600E-1	1.48486144E+0
5.78472091E+2	2.87656600E-1	1.48482858E+0
5.80810955E+2	2.87551700E-1	1.48481140E+0
5.82740782E+2	2.87462300E-1	1.48488422E+0
5.84281338E+2	2.87567300E-1	1.48483601E+0
5.87194000E+2	2.87458400E-1	1.48484871E+0
5.89838247E+2	2.87540100E-1	1.48479541E+0
5.91291448E+2	2.87493400E-1	1.48477707E+0
5.92931833E+2	2.87512900E-1	1.48478762E+0
5.95219680E+2	2.87575000E-1	1.48481315E+0
5.97508878E+2	2.87446800E-1	1.48482608E+0
6.00020858E+2	2.87555600E-1	1.48482532E+0
6.02252015E+2	2.87481700E-1	1.48477832E+0
6.03637223E+2	2.87625600E-1	1.48481691E+0
6.05364422E+2	2.87477900E-1	1.48485067E+0
6.08035101E+2	2.87633300E-1	1.48482483E+0
6.10228615E+2	2.87388400E-1	1.48481700E+0
6.11787572E+2	2.87629400E-1	1.48479509E+0
6.13723917E+2	2.87520600E-1	1.48481360E+0
6.16295308E+2	2.87524500E-1	1.48481248E+0
6.19016329E+2	2.87656600E-1	1.48480202E+0
6.22705190E+2	2.87524500E-1	1.48478444E+0
6.23916319E+2	2.87610000E-1	1.48478342E+0
6.25677419E+2	2.87481700E-1	1.48479844E+0
6.28014595E+2	2.87617800E-1	1.48481051E+0
6.29994359E+2	2.87477900E-1	1.48480188E+0
6.31946024E+2	2.87567300E-1	1.48478793E+0
6.34559247E+2	2.87435100E-1	1.48478001E+0
6.38285571E+2	2.87598400E-1	1.48476199E+0
6.40039517E+2	2.87540100E-1	1.48475345E+0
6.43164753E+2	2.87489500E-1	1.48473588E+0
6.45395460E+2	2.87606100E-1	1.48470980E+0
6.48338606E+2	2.87532300E-1	1.48471329E+0
6.50478445E+2	2.87586700E-1	1.48468454E+0
6.52699921E+2	2.87485600E-1	1.48467555E+0
6.55776666E+2	2.87633300E-1	1.42679308E+0
6.58558737E+2	2.87466200E-1	1.41288257E+0
6.61037245E+2	2.87625600E-1	1.40908190E+0
6.62889578E+2	2.87474000E-1	1.40477132E+0
6.65567868E+2	2.87633300E-1	1.40074697E+0
6.67368374E+2	2.87613900E-1	1.39742170E+0
6.69572200E+2	2.87594500E-1	1.39407639E+0
6.72296070E+2	2.87645000E-1	1.39013450E+0
6.75058760E+2	2.87493400E-1	1.38640914E+0
6.80445599E+2	2.87516700E-1	1.38269934E+0
6.83588763E+2	2.87641100E-1	1.37878531E+0
6.84957266E+2	2.87637200E-1	1.37506759E+0
6.85285433E+2	2.87645000E-1	1.37266002E+0
6.87021144E+2	2.87450600E-1	1.37100143E+0
6.89764770E+2	2.87586700E-1	1.36945553E+0
6.92618085E+2	2.87470100E-1	1.36744081E+0
6.94900530E+2	2.87610000E-1	1.36546450E+0
6.97609440E+2	2.87613900E-1	1.36309821E+0
6.99928538E+2	2.87543900E-1	1.36038611E+0
7.03949530E+2	2.87536100E-1	1.35839620E+0
7.06709749E+2	2.87590600E-1	1.35572658E+0
7.09016571E+2	2.87621700E-1	1.35342307E+0
7.10872867E+2	2.87489500E-1	1.35150342E+0
7.14037912E+2	2.87493400E-1	1.34996164E+0
7.16004077E+2	2.87477900E-1	1.34811997E+0
7.19070691E+2	2.87508900E-1	1.34632678E+0
7.21986280E+2	2.87582800E-1	1.34462124E+0
7.25858451E+2	2.87656600E-1	1.34315637E+0
7.28374053E+2	2.87633300E-1	1.34219171E+0
7.32350420E+2	2.87485600E-1	1.34127540E+0
7.34691401E+2	2.87485600E-1	1.34009001E+0
7.37333397E+2	2.87458400E-1	1.33862496E+0
7.39092126E+2	2.87462300E-1	1.33780814E+0
7.41810398E+2	2.87648900E-1	1.33726621E+0
7.43824787E+2	2.87617800E-1	1.33697809E+0
7.45955124E+2	2.87559500E-1	1.33674015E+0
7.48738328E+2	2.87559500E-1	1.33638137E+0
7.52818799E+2	2.87450600E-1	1.33597972E+0
7.55773291E+2	2.87528400E-1	1.33544637E+0
7.59708379E+2	2.87582800E-1	1.33492120E+0
7.62138111E+2	2.87450600E-1	1.33429372E+0
7.64623318E+2	2.87543900E-1	1.33362956E+0
7.68815507E+2	2.87610000E-1	1.33199464E+0
7.71522118E+2	2.87637200E-1	1.33077375E+0
7.73592164E+2	2.87633300E-1	1.33017198E+0
7.76338220E+2	2.87481700E-1	1.32987903E+0
7.78759082E+2	2.87505100E-1	1.32901244E+0
7.80917788E+2	2.87454500E-1	1.32840661E+0
7.83016922E+2	2.87501200E-1	1.32794699E+0
7.86537962E+2	2.87520600E-1	1.32717078E+0
7.90800214E+2	2.87474000E-1	1.32674064E+0
7.93695675E+2	2.87586700E-1	1.32598057E+0
7.96367975E+2	2.87571100E-1	1.32546286E+0
7.99351962E+2	2.87578900E-1	1.32531396E+0
8.02486073E+2	2.87474000E-1	1.32523222E+0
8.05433091E+2	2.87528400E-1	1.32508679E+0
8.08045188E+2	2.87508900E-1	1.32491534E+0
8.11366482E+2	2.87555600E-1	1.32467700E+0
8.13777428E+2	2.87474000E-1	1.32468362E+0
8.16451124E+2	2.87474000E-1	1.32462450E+0
8.18975686E+2	2.87610000E-1	1.32451185E+0
8.22824037E+2	2.87621700E-1	1.32454280E+0
8.26133714E+2	2.87613900E-1	1.32443422E+0
8.28841587E+2	2.87450600E-1	1.32434644E+0
8.31459035E+2	2.87656600E-1	1.32433401E+0
8.35171913E+2	2.87512900E-1	1.32429121E+0
8.39445378E+2	2.87528400E-1	1.32428151E+0
8.40692574E+2	2.87637200E-1	1.32417454E+0
8.44205104E+2	2.87528400E-1	1.32416403E+0
8.47067379E+2	2.87695500E-1	1.32407947E+0
8.49493029E+2	2.87524500E-1	1.32404580E+0
8.52327498E+2	2.87571100E-1	1.32402434E+0
8.55766723E+2	2.87641100E-1	1.32399813E+0
8.58546913E+2	2.87497300E-1	1.32394089E+0
8.62865498E+2	2.87633300E-1	1.32395498E+0
8.65854034E+2	2.87489500E-1	1.32380660E+0
8.68736663E+2	2.87621700E-1	1.32375898E+0
8.71933584E+2	2.87528400E-1	1.32346308E+0
8.74140516E+2	2.87536100E-1	1.32343106E+0
8.77034716E+2	2.87501200E-1	1.32340441E+0
8.80688996E+2	2.87610000E-1	1.32328640E+0
8.83548885E+2	2.87637200E-1	1.32332821E+0
8.85774774E+2	2.87543900E-1	1.32329016E+0
8.88738948E+2	2.87532300E-1	1.32326154E+0
8.91910253E+2	2.87528400E-1	1.32322241E+0
8.94704986E+2	2.87501200E-1	1.32324513E+0
8.97667945E+2	2.87590600E-1	1.32321861E+0
9.00114203E+2	2.87602300E-1	1.32310963E+0
9.03377456E+2	2.87435100E-1	1.32306974E+0
9.05920119E+2	2.87536100E-1	1.32303783E+0
9.08863401E+2	2.87637200E-1	1.32302387E+0
9.11528587E+2	2.87617800E-1	1.32299958E+0
9.14932824E+2	2.87450600E-1	1.32301604E+0
9.17974087E+2	2.87637200E-1	1.32290550E+0
9.20539670E+2	2.87547800E-1	1.32275900E+0
9.23842323E+2	2.87652800E-1	1.32274438E+0
9.27145363E+2	2.87493400E-1	1.32273763E+0
9.30341795E+2	2.87668300E-1	1.32237067E+0
9.32736586E+2	2.87454500E-1	1.32231683E+0
9.35378989E+2	2.87586700E-1	1.32233709E+0
9.38227352E+2	2.87613900E-1	1.32233476E+0
9.40955668E+2	2.87598400E-1	1.32229858E+0
9.44079744E+2	2.87582800E-1	1.32222212E+0
9.46861149E+2	2.87454500E-1	1.32216877E+0
9.49650795E+2	2.87427300E-1	1.32217507E+0
9.52362451E+2	2.87625600E-1	1.32213621E+0
9.54870894E+2	2.87617800E-1	1.32213961E+0
9.58031348E+2	2.87586700E-1	1.32212928E+0
9.60941129E+2	2.87598400E-1	1.32210706E+0
9.64402463E+2	2.87575000E-1	1.32211166E+0
9.66863762E+2	2.87415600E-1	1.32207920E+0
9.69452265E+2	2.87505100E-1	1.32209999E+0
9.72017669E+2	2.87629400E-1	1.32212745E+0
9.74510082E+2	2.87621700E-1	1.32208957E+0
9.77338992E+2	2.87462300E-1	1.32210710E+0
9.80117495E+2	2.87528400E-1	1.32204879E+0
9.82854863E+2	2.87590600E-1	1.32207017E+0
9.85242451E+2	2.87660600E-1	1.32205613E+0
9.88293937E+2	2.87505100E-1	1.32203144E+0
9.90860783E+2	2.87497300E-1	1.32208041E+0
9.93120850E+2	2.87610000E-1	1.32207715E+0
9.95363988E+2	2.87396200E-1	1.32210389E+0
9.97809212E+2	2.87629400E-1	1.32209481E+0
1.00033837E+3	2.87477900E-1	1.32211695E+0
1.00275887E+3	2.87629400E-1	1.32209879E+0
1.00494811E+3	2.87621700E-1	1.32207786E+0
1.00776626E+3	2.87446800E-1	1.32209608E+0
1.01030607E+3	2.87466200E-1	1.32208814E+0
1.01266294E+3	2.87610000E-1	1.32207508E+0
1.01507390E+3	2.87680000E-1	1.32206941E+0
1.01728525E+3	2.87617800E-1	1.32207826E+0
1.01970868E+3	2.87411800E-1	1.32208738E+0
1.02203543E+3	2.87551700E-1	1.32203797E+0
1.02424972E+3	2.87617800E-1	1.32204271E+0
1.02649748E+3	2.87641100E-1	1.32200814E+0
1.02884220E+3	2.87598400E-1	1.32202527E+0
1.03100275E+3	2.87485600E-1	1.32198417E+0
1.03329060E+3	2.87474000E-1	1.32198573E+0
1.03521908E+3	2.87520600E-1	1.32199843E+0
1.03741953E+3	2.87489500E-1	1.32198488E+0
1.03948521E+3	2.87637200E-1	1.32200657E+0
1.04149491E+3	2.87656600E-1	1.32198354E+0
1.04347810E+3	2.87610000E-1	1.32195148E+0
1.04557728E+3	2.87474000E-1	1.32199588E+0
1.04771780E+3	2.87481700E-1	1.32199231E+0
1.04956640E+3	2.87470100E-1	1.32200841E+0
1.05146907E+3	2.87621700E-1	1.32196574E+0
1.05337886E+3	2.87466200E-1	1.32199076E+0
1.05517153E+3	2.87540100E-1	1.32196901E+0
1.05709182E+3	2.87516700E-1	1.32198180E+0
1.05865367E+3	2.87648900E-1	1.32198797E+0
1.06043437E+3	2.87493400E-1	1.32196995E+0
1.06224140E+3	2.87637200E-1	1.32196378E+0
1.06387422E+3	2.87481700E-1	1.32201324E+0
1.06541816E+3	2.87466200E-1	1.32196928E+0
1.06708232E+3	2.87462300E-1	1.32197738E+0
1.06859636E+3	2.87621700E-1	1.32195627E+0
1.07017100E+3	2.87477900E-1	1.32193548E+0
1.07150789E+3	2.87481700E-1	1.32193569E+0
1.07298555E+3	2.87606100E-1	1.32192925E+0
1.07434311E+3	2.87501200E-1	1.32194920E+0
1.07568775E+3	2.87493400E-1	1.32197107E+0
1.07696403E+3	2.87524500E-1	1.32191512E+0
1.07828980E+3	2.87629400E-1	1.32191877E+0
1.07950602E+3	2.87407900E-1	1.32193256E+0
1.08067018E+3	2.87563400E-1	1.32192518E+0
1.08180962E+3	2.87656600E-1	1.32193573E+0
1.08293907E+3	2.87520600E-1	1.32196918E+0
1.08401151E+3	2.87637200E-1	1.32196453E+0
1.08497148E+3	2.87485600E-1	1.32194799E+0
1.08593369E+3	2.87559500E-1	1.32195943E+0
1.08682030E+3	2.87431200E-1	1.32195532E+0
1.08771083E+3	2.87606100E-1	1.32194061E+0
1.08852138E+3	2.87668300E-1	1.32195452E+0
1.08928583E+3	2.87485600E-1	1.32195846E+0
1.08999309E+3	2.87563400E-1	1.32198055E+0
1.09073386E+3	2.87466200E-1	1.32194008E+0
1.09136297E+3	2.87508900E-1	1.32196015E+0
1.09193147E+3	2.87489500E-1	1.32195224E+0
1.09241386E+3	2.87648900E-1	1.32196855E+0
1.09295488E+3	2.87505100E-1	1.32196587E+0
1.09330439E+3	2.87571100E-1	1.32195541E+0
1.09382339E+3	2.87512900E-1	1.32196158E+0
1.09390449E+3	2.87528400E-1	1.32194521E+0
1.09421847E+3	2.87470100E-1	1.32198953E+0
1.09446342E+3	2.87660600E-1	1.32200243E+0
1.09474292E+3	2.87621700E-1	1.32198457E+0
1.09498382E+3	2.87563400E-1	1.32199025E+0
