# Begin of measurement: 19.07.2019 15:41:21
# R-Sample[Ohm]	I-Coil[A]	U-Magnetometer[V]
# Kei2000	HP E3631A +6V : I	Kei2000
4.92023982E+2	4.80636500E-1	2.52187251E+0
4.91240669E+2	4.80764800E-1	2.52188610E+0
4.91008008E+2	4.80551100E-1	2.52188941E+0
4.90810828E+2	4.80694900E-1	2.52185096E+0
4.90780704E+2	4.80679300E-1	2.52186884E+0
4.90141032E+2	4.80753200E-1	2.52184197E+0
4.89966558E+2	4.80520000E-1	2.52184237E+0
4.89793109E+2	4.80578300E-1	2.52190654E+0
4.89882220E+2	4.80741500E-1	2.52185717E+0
4.90817594E+2	4.80741500E-1	2.52185011E+0
4.90443408E+2	4.80722100E-1	2.52183499E+0
4.90559266E+2	4.80652100E-1	2.52186021E+0
4.90990593E+2	4.80597700E-1	2.52184080E+0
4.91120254E+2	4.80578300E-1	2.52183405E+0
4.91517629E+2	4.80656000E-1	2.52184467E+0
4.91070272E+2	4.80555000E-1	2.52185701E+0
4.90956260E+2	4.80621000E-1	2.52180518E+0
4.90491748E+2	4.80780400E-1	2.52184601E+0
4.90571448E+2	4.80570500E-1	2.52186555E+0
4.90906802E+2	4.80659900E-1	2.52185120E+0
4.91054041E+2	4.80687100E-1	2.52187861E+0
4.90461107E+2	4.80628800E-1	2.52187655E+0
4.90829349E+2	4.80574400E-1	2.52184261E+0
4.91405217E+2	4.80582100E-1	2.52186166E+0
4.91521660E+2	4.80772600E-1	2.52182528E+0
4.91468426E+2	4.80679300E-1	2.52183356E+0
4.91295119E+2	4.80597700E-1	2.52182560E+0
4.91863197E+2	4.80558800E-1	2.52179139E+0
4.92389128E+2	4.80683200E-1	2.52180177E+0
4.91843610E+2	4.80683200E-1	2.52181572E+0
4.91399720E+2	4.80636500E-1	2.52182878E+0
4.91906821E+2	4.80757000E-1	2.52180440E+0
4.92233423E+2	4.80582100E-1	2.52179492E+0
4.91779852E+2	4.80768700E-1	2.52179819E+0
4.92639128E+2	4.80702600E-1	2.52178437E+0
4.92477296E+2	4.80609400E-1	2.52180879E+0
4.91576594E+2	4.80601600E-1	2.52176613E+0
4.90949304E+2	4.80628800E-1	2.52179622E+0
4.91295461E+2	4.80504400E-1	2.52175271E+0
4.91649744E+2	4.80601600E-1	2.52171644E+0
4.90905875E+2	4.80648200E-1	2.52169239E+0
4.91127640E+2	4.80726000E-1	2.52170236E+0
4.91206440E+2	4.80570500E-1	2.52172020E+0
4.91266282E+2	4.80675400E-1	2.52169860E+0
4.91107270E+2	4.80617100E-1	2.52171649E+0
4.91889003E+2	4.80535500E-1	2.52167174E+0
4.91514232E+2	4.80492700E-1	2.52166294E+0
4.91268558E+2	4.80551100E-1	2.52171218E+0
4.91757205E+2	4.80589900E-1	2.52172886E+0
4.90951738E+2	4.80683200E-1	2.52171204E+0
4.91911492E+2	4.80589900E-1	2.52170874E+0
4.91599954E+2	4.80570500E-1	2.52175426E+0
4.91671009E+2	4.80671500E-1	2.52173338E+0
4.92276866E+2	4.80710400E-1	2.52167556E+0
4.93037666E+2	4.80566600E-1	2.52168548E+0
4.92619577E+2	4.80535500E-1	2.52166844E+0
4.92297624E+2	4.80691000E-1	2.52171687E+0
4.92486383E+2	4.80570500E-1	2.52174549E+0
4.92691893E+2	4.80741500E-1	2.52173467E+0
4.91954147E+2	4.80558800E-1	2.52173865E+0
4.91104912E+2	4.80613200E-1	2.52175301E+0
4.91050113E+2	4.80683200E-1	2.52177836E+0
4.91126841E+2	4.80609400E-1	2.52174424E+0
4.91757705E+2	4.80593800E-1	2.52175158E+0
4.91336841E+2	4.80589900E-1	2.52176253E+0
4.91166363E+2	4.80574400E-1	2.52172193E+0
4.91708235E+2	4.80547100E-1	2.52174138E+0
4.92484795E+2	4.80687100E-1	2.52172506E+0
4.92831514E+2	4.80543300E-1	2.52169975E+0
4.93343510E+2	4.80722100E-1	2.52174402E+0
4.94223297E+2	4.80714300E-1	2.52174894E+0
4.95582209E+2	4.80551100E-1	2.52177702E+0
4.96748084E+2	4.80675400E-1	2.52175536E+0
4.98555929E+2	4.80687100E-1	2.52177173E+0
4.98849739E+2	4.80562700E-1	2.52176734E+0
5.00303886E+2	4.80597700E-1	2.52182382E+0
5.02320713E+2	4.80691000E-1	2.52182543E+0
5.03576595E+2	4.80570500E-1	2.52181126E+0
5.05579593E+2	4.80644400E-1	2.52178970E+0
5.06555853E+2	4.80621000E-1	2.52181586E+0
5.07691469E+2	4.80737600E-1	2.52184001E+0
5.10035602E+2	4.80710400E-1	2.52184064E+0
5.10635144E+2	4.80628800E-1	2.52179963E+0
5.12094638E+2	4.80636500E-1	2.52181457E+0
5.13603494E+2	4.80656000E-1	2.52180844E+0
5.15726087E+2	4.80601600E-1	2.52180294E+0
5.17263491E+2	4.80761000E-1	2.52177325E+0
5.19049316E+2	4.80586100E-1	2.52181425E+0
5.20351149E+2	4.80570500E-1	2.52178206E+0
5.22270727E+2	4.80601600E-1	2.52183344E+0
5.24518499E+2	4.80601600E-1	2.52186063E+0
5.26148707E+2	4.80772600E-1	2.52184994E+0
5.28200921E+2	4.80644400E-1	2.52187583E+0
5.30211169E+2	4.80597700E-1	2.52181153E+0
5.31663830E+2	4.80601600E-1	2.52182279E+0
5.33914568E+2	4.80694900E-1	2.52185629E+0
5.36017073E+2	4.80726000E-1	2.52181439E+0
5.36590104E+2	4.80621000E-1	2.52184055E+0
5.37966712E+2	4.80543300E-1	2.52184274E+0
5.39913740E+2	4.80593800E-1	2.52183482E+0
5.42174075E+2	4.80555000E-1	2.52186702E+0
5.44650411E+2	4.80578300E-1	2.52188589E+0
5.46361220E+2	4.80761000E-1	2.52189774E+0
5.47886106E+2	4.80632700E-1	2.52192721E+0
5.50799128E+2	4.80702600E-1	2.52190947E+0
5.52622508E+2	4.80710400E-1	2.52190473E+0
5.54189811E+2	4.80679300E-1	2.52193586E+0
5.56178445E+2	4.80780400E-1	2.52187035E+0
5.57801559E+2	4.80741500E-1	2.52187938E+0
5.59134219E+2	4.80761000E-1	2.52189588E+0
5.61511223E+2	4.80745400E-1	2.52192074E+0
5.62910345E+2	4.80671500E-1	2.52190643E+0
5.64600125E+2	4.80609400E-1	2.52192061E+0
5.66655401E+2	4.80761000E-1	2.52187853E+0
5.68729672E+2	4.80621000E-1	2.52186109E+0
5.70831774E+2	4.80586100E-1	2.52189371E+0
5.72848865E+2	4.80691000E-1	2.52186276E+0
5.74739381E+2	4.80601600E-1	2.52184774E+0
5.76621387E+2	4.80780400E-1	2.52186603E+0
5.79641530E+2	4.80749300E-1	2.52189603E+0
5.82540106E+2	4.80733800E-1	2.52188499E+0
5.83198211E+2	4.80589900E-1	2.52191454E+0
5.85713091E+2	4.80582100E-1	2.52188548E+0
5.88450906E+2	4.80609400E-1	2.52192411E+0
5.89732548E+2	4.80593800E-1	2.52192984E+0
5.92033228E+2	4.80733800E-1	2.52190533E+0
5.92999357E+2	4.80578300E-1	2.52192577E+0
5.94562716E+2	4.80617100E-1	2.52194518E+0
5.97110421E+2	4.80613200E-1	2.52193413E+0
5.99290740E+2	4.80780400E-1	2.52197447E+0
6.01183958E+2	4.80624900E-1	2.52192622E+0
6.03298580E+2	4.80636500E-1	2.52192604E+0
6.05865738E+2	4.80617100E-1	2.52191607E+0
6.07414867E+2	4.80574400E-1	2.52193239E+0
6.09956043E+2	4.80733800E-1	2.52191128E+0
6.12045991E+2	4.80772600E-1	2.52189411E+0
6.14970359E+2	4.80784300E-1	2.52191544E+0
6.17646351E+2	4.80601600E-1	2.52192420E+0
6.19359456E+2	4.80687100E-1	2.52193883E+0
6.21375936E+2	4.80675400E-1	2.52188736E+0
6.24424186E+2	4.80605500E-1	2.52190332E+0
6.26850090E+2	4.80617100E-1	2.52185444E+0
6.29430442E+2	4.80753200E-1	2.52183513E+0
6.31104507E+2	4.80574400E-1	2.52184045E+0
6.33490741E+2	4.80640500E-1	2.52184219E+0
6.36092212E+2	4.80706500E-1	2.52188235E+0
6.38585839E+2	4.80729900E-1	2.52185043E+0
6.41478507E+2	4.80667600E-1	2.52181347E+0
6.43839165E+2	4.80613200E-1	2.52186297E+0
6.46725035E+2	4.80570500E-1	2.52183493E+0
6.48377261E+2	4.80749300E-1	2.52183734E+0
6.50148633E+2	4.80621000E-1	2.52181946E+0
6.52744102E+2	4.80593800E-1	2.52182012E+0
6.54979445E+2	4.80621000E-1	2.52181784E+0
6.56303459E+2	4.80780400E-1	2.52185768E+0
6.59751867E+2	4.80733800E-1	2.52184820E+0
6.63961163E+2	4.80621000E-1	2.52184046E+0
6.65045176E+2	4.80726000E-1	2.52185793E+0
6.68070561E+2	4.80772600E-1	2.52183674E+0
6.69963731E+2	4.80714300E-1	2.52184170E+0
6.72948301E+2	4.80558800E-1	2.52180266E+0
6.76473392E+2	4.80555000E-1	2.52181120E+0
6.78296996E+2	4.80586100E-1	2.52182694E+0
6.79995060E+2	4.80741500E-1	2.52182023E+0
6.81809844E+2	4.80714300E-1	2.52186790E+0
6.84477469E+2	4.80737600E-1	2.52184876E+0
6.87528861E+2	4.80632700E-1	2.52179394E+0
6.90044641E+2	4.80628800E-1	2.52183378E+0
6.92071818E+2	4.80749300E-1	2.52182945E+0
6.96067860E+2	4.80621000E-1	2.52185587E+0
6.97917809E+2	4.80753200E-1	2.52188253E+0
7.00556408E+2	4.80749300E-1	2.52185033E+0
7.03610142E+2	4.80570500E-1	2.52187958E+0
7.05938289E+2	4.80741500E-1	2.52194612E+0
7.08716404E+2	4.80749300E-1	2.52193529E+0
7.11289145E+2	4.80644400E-1	2.52186209E+0
7.13813345E+2	4.80726000E-1	2.52187814E+0
7.17005402E+2	4.80636500E-1	2.52189384E+0
7.20147262E+2	4.80753200E-1	2.52190100E+0
7.23772136E+2	4.80640500E-1	2.52188020E+0
7.26082586E+2	4.80714300E-1	2.52191468E+0
7.27765522E+2	4.80675400E-1	2.52188628E+0
7.30301970E+2	4.80749300E-1	2.52189728E+0
7.33902547E+2	4.80663800E-1	2.52190211E+0
7.36643212E+2	4.80582100E-1	2.52189353E+0
7.39796549E+2	4.80714300E-1	2.52184215E+0
7.43196732E+2	4.80663800E-1	2.52184787E+0
7.45347512E+2	4.80726000E-1	2.52181992E+0
7.47895082E+2	4.80624900E-1	2.52185176E+0
7.50352894E+2	4.80795900E-1	2.52185215E+0
7.53750997E+2	4.80726000E-1	2.52182643E+0
7.55703023E+2	4.80566600E-1	2.52182035E+0
7.57744970E+2	4.80691000E-1	2.52179670E+0
7.60793798E+2	4.80741500E-1	2.52178091E+0
7.64309749E+2	4.80659900E-1	2.52178663E+0
7.66641679E+2	4.80621000E-1	2.52180179E+0
7.68803626E+2	4.80659900E-1	2.52179764E+0
7.72406706E+2	4.80624900E-1	2.52177814E+0
7.75769154E+2	4.80628800E-1	2.52178096E+0
7.79521413E+2	4.80683200E-1	2.52181746E+0
7.82838924E+2	4.80628800E-1	2.52181661E+0
7.86796557E+2	4.80753200E-1	2.49971729E+0
7.89110988E+2	4.80562700E-1	2.43069375E+0
7.90640055E+2	4.80648200E-1	2.41198185E+0
7.93104907E+2	4.80656000E-1	2.40489321E+0
7.95765003E+2	4.80799800E-1	2.40073807E+0
7.99977362E+2	4.80659900E-1	2.39913695E+0
8.02360758E+2	4.80613200E-1	2.39830488E+0
8.05841136E+2	4.80601600E-1	2.39688907E+0
8.08249388E+2	4.80632700E-1	2.39449634E+0
8.11522500E+2	4.80609400E-1	2.39289052E+0
8.14510042E+2	4.80675400E-1	2.39023482E+0
8.16831390E+2	4.80652100E-1	2.38804565E+0
8.19555876E+2	4.80663800E-1	2.38549418E+0
8.22843668E+2	4.80659900E-1	2.38428657E+0
8.26199741E+2	4.80745400E-1	2.38250911E+0
8.28666124E+2	4.80644400E-1	2.38090194E+0
8.31694732E+2	4.80617100E-1	2.37952530E+0
8.34697584E+2	4.80733800E-1	2.37798482E+0
8.38056970E+2	4.80761000E-1	2.37527281E+0
8.41322652E+2	4.80644400E-1	2.37339542E+0
8.43918163E+2	4.80675400E-1	2.37114490E+0
8.46740998E+2	4.80807600E-1	2.36792141E+0
8.49664554E+2	4.80772600E-1	2.36543111E+0
8.52553572E+2	4.80667600E-1	2.36375428E+0
8.55053861E+2	4.80613200E-1	2.36233701E+0
8.58074768E+2	4.80811500E-1	2.36093917E+0
8.61234572E+2	4.80780400E-1	2.35942596E+0
8.64081331E+2	4.80761000E-1	2.35716771E+0
8.67540094E+2	4.80795900E-1	2.35530346E+0
8.70325502E+2	4.80757000E-1	2.35349306E+0
8.73344067E+2	4.80733800E-1	2.35195306E+0
8.75905684E+2	4.80726000E-1	2.35064399E+0
8.79312528E+2	4.80788100E-1	2.34944027E+0
8.82521788E+2	4.80605500E-1	2.34827863E+0
8.86177189E+2	4.80578300E-1	2.34692243E+0
8.88876008E+2	4.80624900E-1	2.34554937E+0
8.91517866E+2	4.80776500E-1	2.34420251E+0
8.94361676E+2	4.80753200E-1	2.34288731E+0
8.98035944E+2	4.80776500E-1	2.34160583E+0
9.01258532E+2	4.80792000E-1	2.34024095E+0
9.04094012E+2	4.80726000E-1	2.33863235E+0
9.06722406E+2	4.80621000E-1	2.33739784E+0
9.09102784E+2	4.80648200E-1	2.33633745E+0
9.11858519E+2	4.80621000E-1	2.33545096E+0
9.15149370E+2	4.80628800E-1	2.33424527E+0
9.18044361E+2	4.80679300E-1	2.33304263E+0
9.20736378E+2	4.80757000E-1	2.33181132E+0
9.23977742E+2	4.80628800E-1	2.33057192E+0
9.26779179E+2	4.80667600E-1	2.32924478E+0
9.30175350E+2	4.80644400E-1	2.32790293E+0
9.33189546E+2	4.80679300E-1	2.32620173E+0
9.35605046E+2	4.80632700E-1	2.32516207E+0
9.38420237E+2	4.80648200E-1	2.32434829E+0
9.41174710E+2	4.80617100E-1	2.32340259E+0
9.44015232E+2	4.80648200E-1	2.32248914E+0
9.46712475E+2	4.80613200E-1	2.32116004E+0
9.49741261E+2	4.80683200E-1	2.32041007E+0
9.52835068E+2	4.80722100E-1	2.31952323E+0
9.55232511E+2	4.80605500E-1	2.31846685E+0
9.58103653E+2	4.80640500E-1	2.31746888E+0
9.60749788E+2	4.80745400E-1	2.31688067E+0
9.63472832E+2	4.80706500E-1	2.31610557E+0
9.65903146E+2	4.80586100E-1	2.31527505E+0
9.69115648E+2	4.80753200E-1	2.31442201E+0
9.71762417E+2	4.80733800E-1	2.31355967E+0
9.74780783E+2	4.80582100E-1	2.31274026E+0
9.77372794E+2	4.80621000E-1	2.31186187E+0
9.79963859E+2	4.80691000E-1	2.31136850E+0
9.82602654E+2	4.80780400E-1	2.31072022E+0
9.85446419E+2	4.80586100E-1	2.30998671E+0
9.87543298E+2	4.80663800E-1	2.30901007E+0
9.90326706E+2	4.80636500E-1	2.30825099E+0
9.92637424E+2	4.80788100E-1	2.30760121E+0
9.95481999E+2	4.80601600E-1	2.30695038E+0
9.97934602E+2	4.80710400E-1	2.30634235E+0
1.00057885E+3	4.80718200E-1	2.30512576E+0
1.00331756E+3	4.80652100E-1	2.30491746E+0
1.00576110E+3	4.80761000E-1	2.30430505E+0
1.00815706E+3	4.80601600E-1	2.30354179E+0
1.01056234E+3	4.80691000E-1	2.30255589E+0
1.01297572E+3	4.80803700E-1	2.30211184E+0
1.01533367E+3	4.80749300E-1	2.30175231E+0
1.01768560E+3	4.80694900E-1	2.30146057E+0
1.01999320E+3	4.80799800E-1	2.30117746E+0
1.02252374E+3	4.80838700E-1	2.30079056E+0
1.02467582E+3	4.80694900E-1	2.30012454E+0
1.02693003E+3	4.80628800E-1	2.29968590E+0
1.02921355E+3	4.80656000E-1	2.29908507E+0
1.03131872E+3	4.80776500E-1	2.29870435E+0
1.03341888E+3	4.80675400E-1	2.29836539E+0
1.03583321E+3	4.80675400E-1	2.29805778E+0
1.03770887E+3	4.80757000E-1	2.29756798E+0
1.04001999E+3	4.80624900E-1	2.29718824E+0
1.04200655E+3	4.80702600E-1	2.29664482E+0
1.04405291E+3	4.80589900E-1	2.29619675E+0
1.04600992E+3	4.80652100E-1	2.29569247E+0
1.04793019E+3	4.80656000E-1	2.29543292E+0
1.04991671E+3	4.80792000E-1	2.29504661E+0
1.05179209E+3	4.80609400E-1	2.29500345E+0
1.05347035E+3	4.80819300E-1	2.29451558E+0
1.05550013E+3	4.80741500E-1	2.29433385E+0
1.05733594E+3	4.80803700E-1	2.29375028E+0
1.05904607E+3	4.80663800E-1	2.29347991E+0
1.06073346E+3	4.80753200E-1	2.29330037E+0
1.06236673E+3	4.80772600E-1	2.29300398E+0
1.06417656E+3	4.80632700E-1	2.29267723E+0
1.06572652E+3	4.80803700E-1	2.29264217E+0
1.06726370E+3	4.80811500E-1	2.29242591E+0
1.06885110E+3	4.80834800E-1	2.29224722E+0
1.07037702E+3	4.80586100E-1	2.29192579E+0
1.07180757E+3	4.80749300E-1	2.29171365E+0
1.07318143E+3	4.80667600E-1	2.29147467E+0
1.07454489E+3	4.80710400E-1	2.29126669E+0
1.07592082E+3	4.80827000E-1	2.29112391E+0
1.07719295E+3	4.80640500E-1	2.29098604E+0
1.07842341E+3	4.80617100E-1	2.29071255E+0
1.07969501E+3	4.80671500E-1	2.29058988E+0
1.08086863E+3	4.80640500E-1	2.29051614E+0
1.08198115E+3	4.80687100E-1	2.29033539E+0
1.08293372E+3	4.80799800E-1	2.29026157E+0
1.08412481E+3	4.80578300E-1	2.29011261E+0
1.08511226E+3	4.80718200E-1	2.28993615E+0
1.08603557E+3	4.80729900E-1	2.28967513E+0
1.08693361E+3	4.80780400E-1	2.28934771E+0
1.08776434E+3	4.80632700E-1	2.28921016E+0
1.08860363E+3	4.80729900E-1	2.28913695E+0
1.08935619E+3	4.80702600E-1	2.28862082E+0
1.09006770E+3	4.80784300E-1	2.28855061E+0
1.09073371E+3	4.80714300E-1	2.28852164E+0
1.09137663E+3	4.80772600E-1	2.28837456E+0
1.09192471E+3	4.80753200E-1	2.28825217E+0
1.09246433E+3	4.80671500E-1	2.28823723E+0
1.09292727E+3	4.80605500E-1	2.28825834E+0
1.09329669E+3	4.80803700E-1	2.28808018E+0
1.09361303E+3	4.80597700E-1	2.28807602E+0
1.09390292E+3	4.80593800E-1	2.28809284E+0
1.09418903E+3	4.80605500E-1	2.28812517E+0
1.09446686E+3	4.80753200E-1	2.28805948E+0
1.09468979E+3	4.80761000E-1	2.28807213E+0
1.09495839E+3	4.80652100E-1	2.28807642E+0
1.09517164E+3	4.80764800E-1	2.28794902E+0
1.09538512E+3	4.80570500E-1	2.28795117E+0
1.09557982E+3	4.80659900E-1	2.28793726E+0
1.09576061E+3	4.80772600E-1	2.28790323E+0
1.09595478E+3	4.80694900E-1	2.28790802E+0
1.09609941E+3	4.80648200E-1	2.28789943E+0
1.09627047E+3	4.80803700E-1	2.28788968E+0
1.09642451E+3	4.80753200E-1	2.28789259E+0
1.09658749E+3	4.80640500E-1	2.28786647E+0
