# Begin of measurement: 19.07.2019 15:57:40
# R-Sample[Ohm]	I-Coil[A]	U-Magnetometer[V]
# Kei2000	HP E3631A +6V : I	Kei2000
1.10031361E+3	7.86662600E-1	4.14883500E+0
1.10031928E+3	7.86779200E-1	4.14887851E+0
1.10031771E+3	7.86915300E-1	4.14881859E+0
1.10032779E+3	7.86880300E-1	4.14886764E+0
1.10033675E+3	7.86755900E-1	4.14889251E+0
1.10032352E+3	7.86697600E-1	4.14887905E+0
1.10033374E+3	7.86856900E-1	4.14889902E+0
1.10032856E+3	7.86775400E-1	4.14884072E+0
1.10034411E+3	7.86837500E-1	4.14882395E+0
1.10033524E+3	7.86923100E-1	4.14884135E+0
1.10031138E+3	7.86814200E-1	4.14882435E+0
1.10025622E+3	7.86670400E-1	4.14881967E+0
1.10019602E+3	7.86880300E-1	4.14880862E+0
1.10006923E+3	7.86822000E-1	4.14881980E+0
1.09995124E+3	7.86779200E-1	4.14882753E+0
1.09975938E+3	7.86744300E-1	4.14879677E+0
1.09956765E+3	7.86825900E-1	4.14881827E+0
1.09927163E+3	7.86891900E-1	4.14876041E+0
1.09896769E+3	7.86736500E-1	4.14876752E+0
1.09862381E+3	7.86856900E-1	4.14875598E+0
1.09817555E+3	7.86724800E-1	4.14873103E+0
1.09771829E+3	7.86880300E-1	4.14870724E+0
1.09714539E+3	7.86744300E-1	4.14876256E+0
1.09658582E+3	7.86740400E-1	4.14881823E+0
1.09596421E+3	7.86853100E-1	4.14875384E+0
1.09532152E+3	7.86724800E-1	4.14877159E+0
1.09454455E+3	7.86810400E-1	4.14874038E+0
1.09374876E+3	7.86833700E-1	4.14876251E+0
1.09293537E+3	7.86724800E-1	4.14877119E+0
1.09140494E+3	7.86693800E-1	4.14876515E+0
1.09103616E+3	7.86872500E-1	4.14877758E+0
1.09000564E+3	7.86740400E-1	4.14881769E+0
1.08901907E+3	7.86650900E-1	4.14882811E+0
1.08796766E+3	7.86685900E-1	4.14880692E+0
1.08671262E+3	7.86872500E-1	4.14881036E+0
1.08557764E+3	7.86650900E-1	4.14877696E+0
1.08439483E+3	7.86685900E-1	4.14878693E+0
1.08299985E+3	7.86748200E-1	4.14880593E+0
1.08161411E+3	7.86720900E-1	4.14878930E+0
1.08027992E+3	7.86697600E-1	4.14879037E+0
1.07881880E+3	7.86732600E-1	4.14875138E+0
1.07729931E+3	7.86650900E-1	4.14878085E+0
1.07561368E+3	7.86872500E-1	4.14881372E+0
1.07404543E+3	7.86891900E-1	4.14874619E+0
1.07229522E+3	7.86837500E-1	4.14879695E+0
1.07064426E+3	7.86860900E-1	4.14876564E+0
1.06899568E+3	7.86685900E-1	4.14876408E+0
1.06708832E+3	7.86647100E-1	4.14874248E+0
1.06532803E+3	7.86891900E-1	4.14871328E+0
1.06356305E+3	7.86810400E-1	4.14874140E+0
1.06165659E+3	7.86748200E-1	4.14874288E+0
1.06002351E+3	7.86849200E-1	4.14874923E+0
1.05787174E+3	7.86806500E-1	4.14876306E+0
1.05588792E+3	7.86767600E-1	4.14874239E+0
1.05383431E+3	7.86845400E-1	4.14874507E+0
1.05146055E+3	7.86787000E-1	4.14879797E+0
1.04935180E+3	7.86853100E-1	4.14877611E+0
1.04732818E+3	7.86701500E-1	4.14878047E+0
1.04464067E+3	7.86771500E-1	4.14877977E+0
1.04232202E+3	7.86736500E-1	4.14877798E+0
1.04011261E+3	7.86790900E-1	4.14873085E+0
1.03782382E+3	7.86705400E-1	4.14876130E+0
1.03520763E+3	7.86849200E-1	4.14878134E+0
1.03283328E+3	7.86674300E-1	4.14879963E+0
1.03019277E+3	7.86693800E-1	4.14878009E+0
1.02788561E+3	7.86713200E-1	4.14877360E+0
1.02551757E+3	7.86685900E-1	4.14879252E+0
1.02058684E+3	7.86911400E-1	4.14880919E+0
1.01958121E+3	7.86654900E-1	4.14879323E+0
1.01770181E+3	7.86798700E-1	4.14878965E+0
1.01485895E+3	7.86709300E-1	4.14878151E+0
1.01257885E+3	7.86728700E-1	4.14875804E+0
1.01050232E+3	7.86872500E-1	4.14876850E+0
1.00716608E+3	7.86674300E-1	4.14878120E+0
1.00449314E+3	7.86720900E-1	4.14875209E+0
1.00204590E+3	7.86717100E-1	4.14875634E+0
9.98263959E+2	7.86822000E-1	4.14874109E+0
9.95157540E+2	7.86818100E-1	4.14874650E+0
9.92993160E+2	7.86728700E-1	4.14876054E+0
9.90334998E+2	7.86697600E-1	4.14871569E+0
9.87441793E+2	7.86763700E-1	4.14876555E+0
9.84076620E+2	7.86849200E-1	4.14870581E+0
9.82099558E+2	7.86689800E-1	4.14876300E+0
9.78980846E+2	7.86678200E-1	4.14873358E+0
9.76163599E+2	7.86798700E-1	4.14871390E+0
9.74276819E+2	7.86759800E-1	4.14873697E+0
9.70845171E+2	7.86693800E-1	4.14873948E+0
9.67691374E+2	7.86790900E-1	4.14873460E+0
9.63794031E+2	7.86709300E-1	4.14871551E+0
9.60174288E+2	7.86829800E-1	4.14865080E+0
9.57077280E+2	7.86685900E-1	4.14866695E+0
9.54102479E+2	7.86829800E-1	4.14870549E+0
9.50473772E+2	7.86724800E-1	4.14873890E+0
9.47155372E+2	7.86755900E-1	4.14873952E+0
9.43281264E+2	7.86829800E-1	4.14876769E+0
9.40460865E+2	7.86701500E-1	4.14876354E+0
9.38368666E+2	7.86849200E-1	4.14870791E+0
9.37030783E+2	7.86736500E-1	4.14875906E+0
9.33240480E+2	7.86829800E-1	4.14871233E+0
9.29709321E+2	7.86701500E-1	4.14870853E+0
9.27347942E+2	7.86856900E-1	4.14873165E+0
9.24479948E+2	7.86682100E-1	4.14872387E+0
9.20757496E+2	7.86860900E-1	4.14873733E+0
9.16604797E+2	7.86829800E-1	4.14871122E+0
9.14302202E+2	7.86717100E-1	4.14871694E+0
9.09482623E+2	7.86853100E-1	4.14873268E+0
9.06264444E+2	7.86689800E-1	4.14866766E+0
9.02779021E+2	7.86798700E-1	4.14866073E+0
8.99178551E+2	7.86911400E-1	4.14862446E+0
8.96671145E+2	7.86701500E-1	4.14869717E+0
8.92254209E+2	7.86689800E-1	4.14860747E+0
8.88455587E+2	7.86709300E-1	4.14865205E+0
8.84864978E+2	7.86701500E-1	4.14864481E+0
8.82671736E+2	7.86643200E-1	4.14862554E+0
8.80112007E+2	7.86818100E-1	4.14862938E+0
8.76738660E+2	7.86701500E-1	4.14862183E+0
8.74195269E+2	7.86678200E-1	4.14861771E+0
8.69745489E+2	7.86775400E-1	4.14858864E+0
8.66464586E+2	7.86678200E-1	4.14863891E+0
8.62911351E+2	7.86876400E-1	4.14866721E+0
8.59473839E+2	7.86732600E-1	4.14865411E+0
8.56353552E+2	7.86822000E-1	4.14866113E+0
8.53627502E+2	7.86775400E-1	4.14863050E+0
8.51000263E+2	7.86701500E-1	4.14859683E+0
8.47128184E+2	7.86841400E-1	4.14858136E+0
8.42960042E+2	7.86658800E-1	4.14856593E+0
8.39409375E+2	7.86810400E-1	4.14856481E+0
8.37584331E+2	7.86818100E-1	4.14857308E+0
8.33687035E+2	7.86802500E-1	4.14853901E+0
8.30200750E+2	7.86709300E-1	4.14853601E+0
8.26863248E+2	7.86713200E-1	4.14851808E+0
8.23506608E+2	7.86674300E-1	4.14850270E+0
8.20468319E+2	7.86853100E-1	4.14855788E+0
8.16692375E+2	7.86837500E-1	4.14855001E+0
8.14338743E+2	7.86701500E-1	4.14857232E+0
8.10791373E+2	7.86845400E-1	4.14847014E+0
8.07102289E+2	7.86650900E-1	4.14849648E+0
8.04981408E+2	7.86732600E-1	4.14848861E+0
8.01969641E+2	7.86662600E-1	4.14853681E+0
7.98994121E+2	7.86849200E-1	4.14851701E+0
7.96060614E+2	7.86654900E-1	4.14851374E+0
7.93496896E+2	7.86860900E-1	4.14849746E+0
7.90399118E+2	7.86744300E-1	4.14851978E+0
7.85471259E+2	7.86674300E-1	4.14849983E+0
7.83232359E+2	7.86810400E-1	4.14847380E+0
7.81596073E+2	7.86650900E-1	4.14848481E+0
7.78054638E+2	7.86697600E-1	4.14843490E+0
7.73643189E+2	7.86693800E-1	4.14847269E+0
7.71486902E+2	7.86822000E-1	4.14842283E+0
7.66930753E+2	7.86724800E-1	4.14841576E+0
7.62755588E+2	7.86818100E-1	4.14843423E+0
7.59111758E+2	7.86670400E-1	4.14841429E+0
7.56204637E+2	7.86810400E-1	4.14842435E+0
7.54013103E+2	7.86814200E-1	4.14840132E+0
7.51946343E+2	7.86837500E-1	4.14836383E+0
7.48809893E+2	7.86658800E-1	4.14833438E+0
7.45401698E+2	7.86616000E-1	4.14837391E+0
7.42963548E+2	7.86701500E-1	4.14835562E+0
7.38811890E+2	7.86802500E-1	4.14835258E+0
7.35448353E+2	7.86794800E-1	4.14833267E+0
7.32696874E+2	7.86810400E-1	4.14829650E+0
7.30627371E+2	7.86744300E-1	4.14827370E+0
7.27552746E+2	7.86860900E-1	4.14829682E+0
7.25012337E+2	7.86775400E-1	4.14825443E+0
7.22266194E+2	7.86775400E-1	4.14820251E+0
7.19973813E+2	7.86845400E-1	4.14823099E+0
7.15729401E+2	7.86639400E-1	4.14824177E+0
7.12274196E+2	7.86670400E-1	4.14825018E+0
7.11153260E+2	7.86674300E-1	4.14825210E+0
7.07137767E+2	7.86818100E-1	4.14821914E+0
7.04067194E+2	7.86798700E-1	4.14817787E+0
7.00637655E+2	7.86689800E-1	4.14816168E+0
6.97914386E+2	7.86759800E-1	4.14816946E+0
6.95944036E+2	7.86639400E-1	4.14816284E+0
6.93625796E+2	7.86798700E-1	4.14814885E+0
6.91622756E+2	7.86635400E-1	4.14816173E+0
6.87895129E+2	7.86662600E-1	4.14812546E+0
6.85260746E+2	7.86643200E-1	4.14811298E+0
6.82447603E+2	7.86759800E-1	4.14810945E+0
6.80910741E+2	7.86666500E-1	4.14809492E+0
6.79314442E+2	7.86697600E-1	4.14809470E+0
6.77741692E+2	7.86798700E-1	4.14811017E+0
6.74445349E+2	7.86635400E-1	4.14815757E+0
6.70709078E+2	7.86759800E-1	4.14816615E+0
6.66923962E+2	7.86806500E-1	4.14814630E+0
6.63226417E+2	7.86697600E-1	4.14816423E+0
6.60564703E+2	7.86814200E-1	4.14813060E+0
6.57680955E+2	7.86872500E-1	4.14812640E+0
6.55837271E+2	7.86689800E-1	4.14809586E+0
6.53176053E+2	7.86689800E-1	4.14808517E+0
6.51448632E+2	7.86697600E-1	4.14811464E+0
6.49318838E+2	7.86685900E-1	4.14803540E+0
6.47000915E+2	7.86678200E-1	4.14803285E+0
6.44889313E+2	7.86790900E-1	4.14805557E+0
6.41037501E+2	7.86635400E-1	4.14799153E+0
6.38506684E+2	7.86876400E-1	4.14801250E+0
6.38307831E+2	7.86678200E-1	4.14801072E+0
6.35537378E+2	7.86814200E-1	4.14804497E+0
6.32211452E+2	7.86693800E-1	4.14801076E+0
6.30479123E+2	7.86833700E-1	4.14801121E+0
6.24719146E+2	7.86810400E-1	4.14800987E+0
6.23367486E+2	7.86822000E-1	4.14799377E+0
6.21432449E+2	7.86658800E-1	4.14795759E+0
6.19858431E+2	7.86678200E-1	4.14790965E+0
6.16337759E+2	7.86833700E-1	4.14793702E+0
6.13822613E+2	7.86639400E-1	4.14787871E+0
6.12622969E+2	7.86732600E-1	4.14787459E+0
6.11052743E+2	7.86841400E-1	4.14789709E+0
6.08763009E+2	7.86736500E-1	4.14790031E+0
6.07028114E+2	7.86829800E-1	4.14788931E+0
6.04161973E+2	7.86790900E-1	4.14786163E+0
6.01635660E+2	7.86643200E-1	4.14782929E+0
5.99207149E+2	7.86670400E-1	4.14778632E+0
5.96696732E+2	7.86748200E-1	4.14779719E+0
5.95052470E+2	7.86709300E-1	4.14778601E+0
5.93867591E+2	7.86682100E-1	4.14777496E+0
5.91027929E+2	7.86814200E-1	4.14778458E+0
5.89048756E+2	7.86705400E-1	4.14777738E+0
5.85660065E+2	7.86647100E-1	4.14778051E+0
5.83332554E+2	7.86837500E-1	4.14772340E+0
5.81508882E+2	7.86856900E-1	4.14777215E+0
5.79152299E+2	7.86666500E-1	4.14778641E+0
5.77650831E+2	7.86662600E-1	4.14776647E+0
5.74838905E+2	7.86790900E-1	4.14776611E+0
5.72586681E+2	7.86763700E-1	4.14771138E+0
5.70811306E+2	7.86662600E-1	4.14770990E+0
5.69087038E+2	7.86693800E-1	4.14768012E+0
5.66340584E+2	7.86612100E-1	4.14767869E+0
5.64737982E+2	7.86678200E-1	4.14770364E+0
5.62073929E+2	7.86701500E-1	4.14765150E+0
5.59533074E+2	7.86650900E-1	4.14761353E+0
5.58097482E+2	7.86670400E-1	4.14759733E+0
5.57407379E+2	7.86697600E-1	4.14759297E+0
5.55421002E+2	7.86841400E-1	4.14757637E+0
5.51898079E+2	7.86654900E-1	4.14759386E+0
5.49352811E+2	7.86627700E-1	4.14760906E+0
5.48154338E+2	7.86818100E-1	4.14760563E+0
5.46225552E+2	7.86806500E-1	4.14757995E+0
5.43953831E+2	7.86705400E-1	4.14758438E+0
5.42678023E+2	7.86682100E-1	4.14756716E+0
5.40956907E+2	7.86771500E-1	4.14750268E+0
5.40120642E+2	7.86802500E-1	4.14752117E+0
5.38216126E+2	7.86790900E-1	4.14753089E+0
5.36570522E+2	7.86767600E-1	4.14744173E+0
5.34094192E+2	7.86856900E-1	4.14750666E+0
5.31346955E+2	7.86822000E-1	4.14750688E+0
5.29064470E+2	7.86674300E-1	4.14752837E+0
5.27921607E+2	7.86841400E-1	4.14753367E+0
5.25471707E+2	7.86814200E-1	4.14747880E+0
5.23719431E+2	7.86674300E-1	4.14752951E+0
5.21738456E+2	7.86678200E-1	4.14754780E+0
5.21157377E+2	7.86650900E-1	4.14757651E+0
5.19854303E+2	7.86623800E-1	4.14753559E+0
5.17694387E+2	7.86802500E-1	4.14751582E+0
5.16059410E+2	7.86720900E-1	4.14752021E+0
5.14049663E+2	7.86658800E-1	4.14747281E+0
5.12107548E+2	7.86627700E-1	4.14750845E+0
5.10185697E+2	7.86783100E-1	4.14749508E+0
5.08707508E+2	7.86674300E-1	4.14748354E+0
5.07549246E+2	7.86752000E-1	4.14744052E+0
5.04975565E+2	7.86775400E-1	4.14748640E+0
5.03194741E+2	7.86775400E-1	4.14744996E+0
5.01473941E+2	7.86728700E-1	4.14742107E+0
5.00570268E+2	7.86802500E-1	4.14746328E+0
4.99264763E+2	7.86790900E-1	4.14741351E+0
4.97205080E+2	7.86662600E-1	4.14737787E+0
4.96572838E+2	7.86841400E-1	4.14739969E+0
4.95827845E+2	7.86666500E-1	4.14741405E+0
4.95039580E+2	7.86647100E-1	4.14735323E+0
4.94653418E+2	7.86771500E-1	4.14732917E+0
4.94536164E+2	7.86612100E-1	4.14735211E+0
4.94004200E+2	7.86662600E-1	4.14736656E+0
4.93386907E+2	7.86635400E-1	4.14731129E+0
4.93972590E+2	7.86654900E-1	4.14734974E+0
4.93714578E+2	7.86822000E-1	4.14734465E+0
4.93135244E+2	7.86802500E-1	4.14734125E+0
4.93248490E+2	7.86682100E-1	4.14729680E+0
4.92463332E+2	7.86682100E-1	4.14727927E+0
4.92279527E+2	7.86798700E-1	4.14728142E+0
4.92686943E+2	7.86713200E-1	4.14729716E+0
4.92285200E+2	7.86635400E-1	4.14728459E+0
4.91923495E+2	7.86650900E-1	4.14729537E+0
4.92753427E+2	7.86689800E-1	4.14729456E+0
4.92559175E+2	7.86631500E-1	4.14735162E+0
4.92500233E+2	7.86814200E-1	4.14731339E+0
4.91935578E+2	7.86693800E-1	4.14728826E+0
4.92689802E+2	7.86713200E-1	4.14730288E+0
4.92258105E+2	7.86682100E-1	4.14730067E+0
4.92863365E+2	7.86682100E-1	4.14730601E+0
4.92220226E+2	7.86666500E-1	4.14726608E+0
4.92333877E+2	7.86670400E-1	4.14729291E+0
4.91962304E+2	7.86724800E-1	4.14729456E+0
4.91718251E+2	7.86728700E-1	4.14728105E+0
4.91987241E+2	7.86825900E-1	4.14734500E+0
4.91411947E+2	7.86596500E-1	4.14736432E+0
4.91074325E+2	7.86701500E-1	4.14733838E+0
4.91805494E+2	7.86775400E-1	4.14728888E+0
4.91227691E+2	7.86787000E-1	4.14726332E+0
4.92747801E+2	7.86833700E-1	4.14728777E+0
4.93079107E+2	7.86736500E-1	4.14724403E+0
4.92109663E+2	7.86853100E-1	4.14718921E+0
4.91419965E+2	7.86825900E-1	4.14725794E+0
4.91587920E+2	7.86670400E-1	4.14720887E+0
4.90636968E+2	7.86825900E-1	4.14721528E+0
4.90752375E+2	7.86748200E-1	4.14719516E+0
4.90959731E+2	7.86744300E-1	4.14717624E+0
4.91089952E+2	7.86841400E-1	4.14718612E+0
4.90690642E+2	7.86627700E-1	4.14715581E+0
4.90827663E+2	7.86818100E-1	4.14716533E+0
4.91401953E+2	7.86798700E-1	4.14714244E+0
4.91426404E+2	7.86701500E-1	4.14710376E+0
4.90772098E+2	7.86833700E-1	4.14715174E+0
4.91456271E+2	7.86833700E-1	4.14713924E+0
4.90887969E+2	7.86752000E-1	4.14717616E+0
4.91642778E+2	7.86713200E-1	4.14719105E+0
4.92451531E+2	7.86701500E-1	4.14716985E+0
4.91558440E+2	7.86755900E-1	4.14718215E+0
4.91768407E+2	7.86868600E-1	4.14719530E+0
4.91331027E+2	7.86814200E-1	4.14720652E+0
4.91960568E+2	7.86693800E-1	4.14720415E+0
4.92634507E+2	7.86639400E-1	4.14715532E+0
4.92404772E+2	7.86689800E-1	4.14717262E+0
4.92742034E+2	7.86654900E-1	4.14716681E+0
4.93565197E+2	7.86697600E-1	4.14718018E+0
4.93669405E+2	7.86790900E-1	4.14718474E+0
4.93560121E+2	7.86689800E-1	4.14719923E+0
4.93299092E+2	7.86697600E-1	4.14717186E+0
4.92367951E+2	7.86705400E-1	4.14721658E+0
4.92210397E+2	7.86771500E-1	4.14720898E+0
4.92597640E+2	7.86685900E-1	4.14721725E+0
4.92320446E+2	7.86748200E-1	4.14721730E+0
4.92424326E+2	7.86643200E-1	4.14721278E+0
4.92272654E+2	7.86787000E-1	4.14718407E+0
4.91511245E+2	7.86787000E-1	4.14720741E+0
4.91735306E+2	7.86814200E-1	4.14721157E+0
4.92139030E+2	7.86864800E-1	4.14721063E+0
4.91707298E+2	7.86825900E-1	4.14722655E+0
4.91460858E+2	7.86829800E-1	4.14720657E+0
4.92259435E+2	7.86775400E-1	4.14717348E+0
4.91628949E+2	7.86752000E-1	4.14717330E+0
4.91967653E+2	7.86639400E-1	4.14719007E+0
4.92838425E+2	7.86798700E-1	4.14718179E+0
4.93124490E+2	7.86833700E-1	4.14721153E+0
4.93375298E+2	7.86759800E-1	4.14717468E+0
4.92596894E+2	7.86654900E-1	4.14712545E+0
4.92787679E+2	7.86650900E-1	4.14715957E+0
4.92624271E+2	7.86639400E-1	4.14715979E+0
4.92241350E+2	7.86736500E-1	4.14715644E+0
4.92531524E+2	7.86639400E-1	4.14716672E+0
4.92435785E+2	7.86787000E-1	4.14717822E+0
4.91993382E+2	7.86802500E-1	4.14713940E+0
4.91589838E+2	7.86845400E-1	4.14719284E+0
4.91897066E+2	7.86806500E-1	4.14715152E+0
4.91847986E+2	7.86662600E-1	4.14716771E+0
4.91536930E+2	7.86678200E-1	4.14717750E+0
4.91344839E+2	7.86612100E-1	4.14716109E+0
4.91178711E+2	7.86662600E-1	4.14716735E+0
4.90757019E+2	7.86662600E-1	4.14720420E+0
4.90736576E+2	7.86763700E-1	4.14717075E+0
4.91259354E+2	7.86658800E-1	4.14716158E+0
4.90811368E+2	7.86685900E-1	4.14716780E+0
4.90868149E+2	7.86810400E-1	4.14717419E+0
4.90711270E+2	7.86693800E-1	4.14717312E+0
4.90624951E+2	7.86678200E-1	4.14719901E+0
4.90616474E+2	7.86643200E-1	4.14720996E+0
4.91201751E+2	7.86666500E-1	4.14719852E+0
4.90929600E+2	7.86767600E-1	4.14717880E+0
4.90695003E+2	7.86787000E-1	4.14718931E+0
4.90355265E+2	7.86829800E-1	4.14718170E+0
4.90525111E+2	7.86732600E-1	4.14717620E+0
4.90408713E+2	7.86822000E-1	4.14716699E+0
4.90658755E+2	7.86666500E-1	4.14719413E+0
4.91183041E+2	7.86853100E-1	4.14718922E+0
4.90973074E+2	7.86635400E-1	4.14717956E+0
4.90597763E+2	7.86818100E-1	4.14721770E+0
4.90598709E+2	7.86787000E-1	4.14720988E+0
4.90565613E+2	7.86818100E-1	4.14717861E+0
4.90984376E+2	7.86829800E-1	4.14721596E+0
4.92418662E+2	7.86853100E-1	4.14721363E+0
4.92263494E+2	7.86720900E-1	4.14720693E+0
4.91300045E+2	7.86798700E-1	4.14718636E+0
4.91230432E+2	7.86685900E-1	4.14720178E+0
4.90778528E+2	7.86724800E-1	4.14722191E+0
4.91191662E+2	7.86689800E-1	4.14720402E+0
4.91224758E+2	7.86806500E-1	4.14720330E+0
4.91226289E+2	7.86841400E-1	4.14718797E+0
4.90965485E+2	7.86837500E-1	4.14719919E+0
4.90794738E+2	7.86662600E-1	4.14716842E+0
4.91096496E+2	7.86701500E-1	4.14721609E+0
4.91192497E+2	7.86818100E-1	4.14723281E+0
4.90931062E+2	7.86685900E-1	4.14720657E+0
4.91222936E+2	7.86767600E-1	4.14721363E+0
4.91817084E+2	7.86654900E-1	4.14721305E+0
4.91591042E+2	7.86674300E-1	4.14719015E+0
4.91199116E+2	7.86701500E-1	4.14721175E+0
4.91260125E+2	7.86670400E-1	4.14715125E+0
4.91761453E+2	7.86709300E-1	4.14718863E+0
4.91328641E+2	7.86658800E-1	4.14719910E+0
4.91537257E+2	7.86825900E-1	4.14720943E+0
4.91071665E+2	7.86654900E-1	4.14722119E+0
4.91033976E+2	7.86763700E-1	4.14720858E+0
4.90842561E+2	7.86779200E-1	4.14725012E+0
4.91211072E+2	7.86849200E-1	4.14723653E+0
4.92073297E+2	7.86705400E-1	4.14718452E+0
4.90580693E+2	7.86822000E-1	4.14723559E+0
4.90496490E+2	7.86697600E-1	4.14718658E+0
4.90651117E+2	7.86685900E-1	4.14722021E+0
4.90935560E+2	7.86783100E-1	4.14721453E+0
4.91169978E+2	7.86635400E-1	4.14719387E+0
4.91560643E+2	7.86790900E-1	4.14722177E+0
4.92480345E+2	7.86666500E-1	4.14718443E+0
4.92389924E+2	7.86689800E-1	4.14716793E+0
4.91290506E+2	7.86682100E-1	4.14719919E+0
4.90865349E+2	7.86701500E-1	4.14720527E+0
4.90703337E+2	7.86806500E-1	4.14720008E+0
4.90750031E+2	7.86662600E-1	4.14714732E+0
4.91126513E+2	7.86647100E-1	4.14718183E+0
4.90691314E+2	7.86767600E-1	4.14720379E+0
4.90606391E+2	7.86670400E-1	4.14722476E+0
4.91085724E+2	7.86705400E-1	4.14721533E+0
4.91831452E+2	7.86818100E-1	4.14718801E+0
4.91390760E+2	7.86709300E-1	4.14722633E+0
4.91270264E+2	7.86829800E-1	4.14724654E+0
4.91472216E+2	7.86685900E-1	4.14718836E+0
4.91366805E+2	7.86674300E-1	4.14723559E+0
4.91479511E+2	7.86825900E-1	4.14720571E+0
4.91856173E+2	7.86732600E-1	4.14717830E+0
4.92155521E+2	7.86728700E-1	4.14717097E+0
4.92447439E+2	7.86705400E-1	4.14720679E+0
4.92557083E+2	7.86643200E-1	4.14723348E+0
4.92312715E+2	7.86872500E-1	4.14720831E+0
4.92591575E+2	7.86697600E-1	4.14720433E+0
4.92532363E+2	7.86771500E-1	4.14719905E+0
4.92482066E+2	7.86837500E-1	4.14721041E+0
4.92234140E+2	7.86771500E-1	4.14721363E+0
4.92376871E+2	7.86740400E-1	4.14720308E+0
4.92047859E+2	7.86639400E-1	4.14718239E+0
4.92197984E+2	7.86670400E-1	4.14715250E+0
4.92739404E+2	7.86670400E-1	4.14712661E+0
4.92376341E+2	7.86814200E-1	4.14708573E+0
4.92002066E+2	7.86701500E-1	4.14714320E+0
4.91638642E+2	7.86654900E-1	4.14710546E+0
4.91983469E+2	7.86635400E-1	4.14712258E+0
4.92295016E+2	7.86740400E-1	4.14714592E+0
4.92309408E+2	7.86732600E-1	4.14717168E+0
4.92360470E+2	7.86790900E-1	4.14715111E+0
4.92811248E+2	7.86678200E-1	4.14715836E+0
4.92345250E+2	7.86631500E-1	4.14714163E+0
4.91923110E+2	7.86600400E-1	4.14715299E+0
4.91800273E+2	7.86810400E-1	4.14719333E+0
4.92352500E+2	7.86864800E-1	4.14716015E+0
4.93229317E+2	7.86647100E-1	4.14715670E+0
4.93468628E+2	7.86713200E-1	4.14715312E+0
4.93102593E+2	7.86658800E-1	4.14715867E+0
4.93430354E+2	7.86755900E-1	4.14716636E+0
4.93066435E+2	7.86682100E-1	4.14715031E+0
4.92671042E+2	7.86705400E-1	4.14715818E+0
4.92162132E+2	7.86654900E-1	4.14718309E+0
4.91910559E+2	7.86635400E-1	4.14713180E+0
4.91684884E+2	7.86806500E-1	4.14715402E+0
4.91827649E+2	7.86818100E-1	4.14714494E+0
4.91766816E+2	7.86744300E-1	4.14714342E+0
4.91951387E+2	7.86822000E-1	4.14714351E+0
4.92077916E+2	7.86635400E-1	4.14714615E+0
4.92240468E+2	7.86798700E-1	4.14715232E+0
4.92035725E+2	7.86674300E-1	4.14714548E+0
4.92055177E+2	7.86705400E-1	4.14707518E+0
4.92668009E+2	7.86802500E-1	4.14708489E+0
4.92456083E+2	7.86623800E-1	4.14708399E+0
4.91898588E+2	7.86608200E-1	4.14709473E+0
4.91892870E+2	7.86588800E-1	4.14707500E+0
