# Begin of measurement: 19.07.2019 16:14:19
# R-Sample[Ohm]	I-Coil[A]	U-Magnetometer[V]
# Kei2000	HP E3631A +6V : I	Kei2000
4.91271541E+2	9.80264500E-1	5.16810873E+0
4.91237860E+2	9.80120700E-1	5.16816364E+0
4.91379834E+2	9.80093400E-1	5.16815598E+0
4.91241867E+2	9.80093400E-1	5.16817784E+0
4.91199792E+2	9.80213900E-1	5.16818857E+0
4.91290466E+2	9.80194500E-1	5.16820364E+0
4.90890345E+2	9.80093400E-1	5.16819505E+0
4.90913264E+2	9.80225600E-1	5.16818620E+0
4.90840228E+2	9.80136200E-1	5.16819408E+0
4.91833552E+2	9.80062300E-1	5.16816565E+0
4.91639976E+2	9.80132300E-1	5.16813981E+0
4.92222564E+2	9.80178900E-1	5.16816029E+0
4.91957257E+2	9.80109000E-1	5.16815653E+0
4.91786330E+2	9.80070100E-1	5.16821672E+0
4.91298629E+2	9.80210000E-1	5.16820208E+0
4.90843168E+2	9.80241100E-1	5.16813630E+0
4.92204868E+2	9.80136200E-1	5.16817015E+0
4.92107314E+2	9.80105100E-1	5.16812566E+0
4.91748934E+2	9.80046800E-1	5.16816233E+0
4.91623035E+2	9.80124600E-1	5.16811578E+0
4.91256865E+2	9.80233400E-1	5.16808814E+0
4.91439139E+2	9.80198400E-1	5.16811488E+0
4.91501684E+2	9.80163400E-1	5.16809118E+0
4.91572772E+2	9.80058500E-1	5.16811336E+0
4.91166956E+2	9.80050700E-1	5.16811671E+0
4.90780523E+2	9.80206100E-1	5.16809261E+0
4.91639707E+2	9.80252800E-1	5.16810281E+0
4.91647587E+2	9.80155700E-1	5.16808470E+0
4.91009987E+2	9.80237300E-1	5.16806636E+0
4.90761223E+2	9.80202300E-1	5.16809769E+0
4.90935847E+2	9.80081800E-1	5.16809903E+0
4.91458175E+2	9.80252800E-1	5.16807788E+0
4.91696014E+2	9.80081800E-1	5.16813968E+0
4.91367713E+2	9.80202300E-1	5.16810279E+0
4.91332681E+2	9.80248900E-1	5.16810959E+0
4.92341783E+2	9.80159600E-1	5.16814143E+0
4.92409308E+2	9.80229500E-1	5.16814456E+0
4.92026838E+2	9.80132300E-1	5.16812568E+0
4.92447763E+2	9.80027400E-1	5.16816508E+0
4.91584570E+2	9.80105100E-1	5.16821731E+0
4.91760766E+2	9.80093400E-1	5.16821199E+0
4.91440447E+2	9.80035100E-1	5.16822263E+0
4.91258352E+2	9.80128400E-1	5.16822268E+0
4.91276228E+2	9.80245000E-1	5.16819209E+0
4.91676169E+2	9.80206100E-1	5.16818342E+0
4.91323958E+2	9.80237300E-1	5.16816794E+0
4.91495066E+2	9.80252800E-1	5.16816271E+0
4.91552211E+2	9.80178900E-1	5.16814921E+0
4.91470130E+2	9.80109000E-1	5.16818140E+0
4.91474633E+2	9.80046800E-1	5.16819468E+0
4.91158805E+2	9.80221700E-1	5.16812063E+0
4.91817524E+2	9.80085700E-1	5.16814241E+0
4.92181668E+2	9.80054600E-1	5.16812577E+0
4.91538250E+2	9.80124600E-1	5.16811285E+0
4.91719590E+2	9.80023500E-1	5.16806290E+0
4.91129134E+2	9.80089600E-1	5.16811442E+0
4.91013141E+2	9.80112800E-1	5.16810561E+0
4.90681688E+2	9.80109000E-1	5.16811911E+0
4.90749005E+2	9.80097300E-1	5.16812403E+0
4.90842979E+2	9.80109000E-1	5.16814182E+0
4.90665387E+2	9.80124600E-1	5.16815213E+0
4.91719140E+2	9.80245000E-1	5.16813576E+0
4.91314290E+2	9.80190600E-1	5.16812002E+0
4.91823470E+2	9.80186700E-1	5.16810513E+0
4.91598779E+2	9.80217800E-1	5.16809932E+0
4.92063516E+2	9.80074000E-1	5.16804861E+0
4.92758334E+2	9.80245000E-1	5.16805684E+0
4.93655118E+2	9.80225600E-1	5.16809570E+0
4.94540600E+2	9.80039000E-1	5.16812271E+0
4.95097420E+2	9.80217800E-1	5.16810795E+0
4.96462137E+2	9.80081800E-1	5.16810352E+0
4.97432317E+2	9.80186700E-1	5.16806963E+0
4.99126218E+2	9.80252800E-1	5.16808765E+0
5.00374718E+2	9.80058500E-1	5.16811685E+0
5.02359746E+2	9.80210000E-1	5.16814314E+0
5.03734146E+2	9.80225600E-1	5.16816336E+0
5.05772983E+2	9.80101200E-1	5.16811743E+0
5.07466138E+2	9.80050700E-1	5.16813201E+0
5.08806812E+2	9.80109000E-1	5.16811148E+0
5.10965379E+2	9.80140100E-1	5.16812651E+0
5.12290158E+2	9.80202300E-1	5.16807741E+0
5.13498853E+2	9.80062300E-1	5.16808023E+0
5.14979564E+2	9.80136200E-1	5.16809614E+0
5.16951039E+2	9.80089600E-1	5.16808658E+0
5.18143389E+2	9.80031300E-1	5.16811412E+0
5.21733463E+2	9.80194500E-1	5.16812933E+0
5.22767899E+2	9.80074000E-1	5.16814838E+0
5.24042966E+2	9.80171100E-1	5.16816398E+0
5.26226390E+2	9.80221700E-1	5.16810652E+0
5.27530635E+2	9.80237300E-1	5.16814587E+0
5.29841415E+2	9.80178900E-1	5.16816224E+0
5.31121847E+2	9.80089600E-1	5.16814319E+0
5.33277038E+2	9.80085700E-1	5.16817225E+0
5.34778553E+2	9.80093400E-1	5.16814484E+0
5.36248277E+2	9.80272200E-1	5.16809140E+0
5.38041891E+2	9.80066200E-1	5.16807750E+0
5.39895482E+2	9.80074000E-1	5.16807233E+0
5.41399608E+2	9.80248900E-1	5.16803114E+0
5.42987758E+2	9.80109000E-1	5.16809075E+0
5.45624661E+2	9.80233400E-1	5.16807456E+0
5.46750775E+2	9.80077800E-1	5.16818459E+0
5.48563120E+2	9.80147800E-1	5.16801091E+0
5.50864395E+2	9.80237300E-1	5.16799660E+0
5.53434669E+2	9.80280000E-1	5.16802553E+0
5.55068252E+2	9.80147800E-1	5.16809654E+0
5.57115510E+2	9.80213900E-1	5.16811814E+0
5.58596176E+2	9.80143900E-1	5.16811751E+0
5.60532665E+2	9.80256700E-1	5.16814944E+0
5.62568098E+2	9.80097300E-1	5.16817104E+0
5.65770614E+2	9.80070100E-1	5.16815396E+0
5.67734525E+2	9.80066200E-1	5.16811952E+0
5.68884369E+2	9.80109000E-1	5.16813332E+0
5.71014705E+2	9.80066200E-1	5.16817007E+0
5.73475370E+2	9.80272200E-1	5.16817853E+0
5.76134675E+2	9.80206100E-1	5.16823250E+0
5.77693342E+2	9.80074000E-1	5.16821730E+0
5.79889734E+2	9.80264500E-1	5.16816507E+0
5.81417230E+2	9.80143900E-1	5.16825303E+0
5.83751994E+2	9.80077800E-1	5.16821917E+0
5.87004210E+2	9.80202300E-1	5.16822025E+0
5.88478753E+2	9.80097300E-1	5.16822499E+0
5.90152405E+2	9.80264500E-1	5.16823588E+0
5.93493867E+2	9.80085700E-1	5.16821129E+0
5.96463935E+2	9.80155700E-1	5.16822197E+0
5.98403890E+2	9.80194500E-1	5.16821723E+0
5.99603085E+2	9.80171100E-1	5.16813777E+0
6.01050836E+2	9.80093400E-1	5.16818343E+0
6.03949669E+2	9.80210000E-1	5.16818687E+0
6.06609357E+2	9.80085700E-1	5.16820990E+0
6.07997760E+2	9.80101200E-1	5.16822971E+0
6.12061162E+2	9.80097300E-1	5.16821585E+0
6.13138374E+2	9.80140100E-1	5.16819998E+0
6.15678422E+2	9.80105100E-1	5.16822370E+0
6.18162129E+2	9.80101200E-1	5.16820000E+0
6.20306964E+2	9.80299400E-1	5.16822231E+0
6.22348143E+2	9.80105100E-1	5.16824650E+0
6.24873153E+2	9.80105100E-1	5.16820601E+0
6.27306529E+2	9.80109000E-1	5.16818830E+0
6.29961490E+2	9.80213900E-1	5.16817032E+0
6.31501750E+2	9.79996300E-1	5.16819224E+0
6.34473348E+2	9.80101200E-1	5.16817828E+0
6.36002510E+2	9.80248900E-1	5.16820999E+0
6.38878650E+2	9.80202300E-1	5.16820279E+0
6.40788572E+2	9.80105100E-1	5.16823673E+0
6.43149318E+2	9.80229500E-1	5.16822756E+0
6.47164540E+2	9.80175100E-1	5.16821035E+0
6.50186977E+2	9.80097300E-1	5.16824156E+0
6.52620534E+2	9.80035100E-1	5.16825430E+0
6.54901399E+2	9.80194500E-1	5.16824630E+0
6.56981618E+2	9.80217800E-1	5.16827456E+0
6.60074705E+2	9.80167300E-1	5.16822971E+0
6.63399823E+2	9.80101200E-1	5.16823217E+0
6.66459498E+2	9.80039000E-1	5.16824302E+0
6.68159768E+2	9.80097300E-1	5.16822938E+0
6.70562210E+2	9.80186700E-1	5.16820635E+0
6.73006214E+2	9.80050700E-1	5.16820049E+0
6.75715884E+2	9.80136200E-1	5.16823143E+0
6.77090599E+2	9.80050700E-1	5.16817988E+0
6.79703324E+2	9.80140100E-1	5.16819061E+0
6.82217526E+2	9.80105100E-1	5.16819682E+0
6.84812059E+2	9.80248900E-1	5.16822316E+0
6.87238321E+2	9.80163400E-1	5.16824029E+0
6.90610043E+2	9.80128400E-1	5.16823085E+0
6.93658011E+2	9.80245000E-1	5.16822352E+0
6.95604825E+2	9.80089600E-1	5.16827602E+0
6.98966594E+2	9.80070100E-1	5.16826238E+0
7.01352645E+2	9.80171100E-1	5.16826028E+0
7.03905616E+2	9.80163400E-1	5.16824382E+0
7.05772400E+2	9.80276100E-1	5.16827763E+0
7.09057009E+2	9.80175100E-1	5.16828067E+0
7.12510985E+2	9.80105100E-1	5.16829319E+0
7.15388879E+2	9.80093400E-1	5.16827168E+0
7.18087425E+2	9.80143900E-1	5.16827436E+0
7.21235264E+2	9.80225600E-1	5.16823072E+0
7.23525178E+2	9.80198400E-1	5.16826497E+0
7.26456070E+2	9.80241100E-1	5.16826806E+0
7.28769084E+2	9.80260600E-1	5.16826506E+0
7.31188995E+2	9.80077800E-1	5.16826986E+0
7.34870464E+2	9.80093400E-1	5.16822340E+0
7.38546935E+2	9.80066200E-1	5.16818548E+0
7.41758129E+2	9.80124600E-1	5.16819702E+0
7.43719562E+2	9.80074000E-1	5.16821267E+0
7.46168804E+2	9.80225600E-1	5.16822193E+0
7.49739099E+2	9.80093400E-1	5.16824397E+0
7.52771576E+2	9.80101200E-1	5.16822712E+0
7.56639824E+2	9.80241100E-1	5.16822577E+0
7.59864527E+2	9.80132300E-1	5.16820145E+0
7.61980317E+2	9.80252800E-1	5.16816102E+0
7.63895924E+2	9.80163400E-1	5.16817287E+0
7.67258549E+2	9.80213900E-1	5.16816277E+0
7.70740183E+2	9.80081800E-1	5.16814282E+0
7.73396314E+2	9.80163400E-1	5.16816746E+0
7.76549601E+2	9.80058500E-1	5.16816202E+0
7.79274355E+2	9.80062300E-1	5.16814611E+0
7.81612825E+2	9.80058500E-1	5.16819307E+0
7.84506026E+2	9.80276100E-1	5.16816530E+0
7.88124186E+2	9.80116700E-1	5.16822446E+0
7.91336011E+2	9.80221700E-1	5.16826640E+0
7.93825221E+2	9.80260600E-1	5.16824109E+0
7.96726620E+2	9.80190600E-1	5.16822133E+0
7.99827693E+2	9.80210000E-1	5.16822173E+0
8.02843772E+2	9.80112800E-1	5.16825916E+0
8.05946718E+2	9.80245000E-1	5.16819477E+0
8.08188002E+2	9.80124600E-1	5.16822273E+0
8.11231871E+2	9.80241100E-1	5.16824536E+0
8.14306044E+2	9.80046800E-1	5.16823847E+0
8.17691316E+2	9.80217800E-1	5.16820301E+0
8.20457270E+2	9.80074000E-1	5.16823584E+0
8.23601642E+2	9.80202300E-1	5.16826090E+0
8.26973362E+2	9.80140100E-1	5.16826246E+0
8.29743099E+2	9.80303400E-1	5.16822794E+0
8.33217979E+2	9.80112800E-1	5.16825079E+0
8.37756915E+2	9.80081800E-1	5.16825321E+0
8.39850723E+2	9.80132300E-1	5.16826635E+0
8.42275092E+2	9.80105100E-1	5.16823420E+0
8.46327911E+2	9.80210000E-1	5.16821488E+0
8.49064822E+2	9.80112800E-1	5.16821756E+0
8.51804750E+2	9.80233400E-1	5.16822302E+0
8.54567687E+2	9.80085700E-1	5.16818953E+0
8.57755422E+2	9.80081800E-1	5.16823297E+0
8.60860034E+2	9.80241100E-1	5.16823141E+0
8.64407410E+2	9.80248900E-1	5.16815391E+0
8.67702807E+2	9.80042800E-1	5.16822269E+0
8.70889506E+2	9.80081800E-1	5.16817517E+0
8.74099214E+2	9.80109000E-1	5.16818519E+0
8.77571906E+2	9.80128400E-1	5.16815809E+0
8.80305214E+2	9.80256700E-1	5.16817777E+0
8.83614974E+2	9.80046800E-1	5.16818810E+0
8.86100851E+2	9.80229500E-1	5.16821784E+0
8.89695685E+2	9.80272200E-1	5.16819755E+0
8.92867749E+2	9.80070100E-1	5.16818758E+0
8.95948917E+2	9.80116700E-1	5.16816871E+0
8.98396519E+2	9.80171100E-1	5.16817613E+0
9.00965698E+2	9.80241100E-1	5.16816482E+0
9.04479930E+2	9.80085700E-1	5.16820010E+0
9.07746867E+2	9.80023500E-1	5.16819979E+0
9.10722966E+2	9.80283800E-1	5.16820792E+0
9.13508409E+2	9.80225600E-1	5.16825832E+0
9.16564208E+2	9.80027400E-1	5.16826029E+0
9.20483695E+2	9.80272200E-1	5.16825421E+0
9.22951110E+2	9.80202300E-1	5.16824974E+0
9.25684371E+2	9.80081800E-1	5.16825966E+0
9.29425366E+2	9.80241100E-1	5.16821817E+0
9.32303344E+2	9.80093400E-1	5.16823037E+0
9.34927997E+2	9.80109000E-1	5.16816412E+0
9.37610737E+2	9.80093400E-1	5.16820477E+0
9.40337740E+2	9.80171100E-1	5.16819122E+0
9.43690186E+2	9.80241100E-1	5.16820070E+0
9.47165333E+2	9.80074000E-1	5.16819046E+0
9.49928965E+2	9.80097300E-1	5.16821394E+0
9.52671789E+2	9.80159600E-1	5.16816349E+0
9.55243624E+2	9.80046800E-1	5.16816694E+0
9.58330222E+2	9.80202300E-1	5.16818420E+0
9.61217705E+2	9.80151700E-1	5.16818429E+0
9.64141887E+2	9.80046800E-1	5.16819223E+0
9.66912225E+2	9.80225600E-1	5.16822322E+0
9.69595653E+2	9.80089600E-1	5.16821629E+0
9.72289966E+2	9.80077800E-1	5.16820855E+0
9.74955011E+2	9.80112800E-1	5.16823301E+0
9.77844567E+2	9.80210000E-1	5.16827455E+0
9.80324411E+2	9.80217800E-1	5.16829423E+0
9.83036796E+2	9.80124600E-1	5.16827630E+0
9.85524130E+2	9.80109000E-1	5.16827017E+0
9.88301520E+2	9.80260600E-1	5.16831292E+0
9.91091608E+2	9.80237300E-1	5.16826977E+0
9.93671910E+2	9.80147800E-1	5.16828399E+0
9.96299265E+2	9.80260600E-1	5.16830170E+0
9.98795355E+2	9.80276100E-1	5.16828099E+0
1.00138130E+3	9.80077800E-1	5.16830854E+0
1.00403504E+3	9.80140100E-1	5.16836068E+0
1.00681391E+3	9.80093400E-1	5.16831578E+0
1.00922149E+3	9.80264500E-1	5.16833054E+0
1.01175721E+3	9.80143900E-1	5.16830443E+0
1.01416963E+3	9.80256700E-1	5.16835469E+0
1.01646577E+3	9.80085700E-1	5.16832241E+0
1.01895359E+3	9.80159600E-1	5.16835114E+0
1.02147445E+3	9.80120700E-1	5.16836138E+0
1.02374496E+3	9.80299400E-1	5.16832068E+0
1.02626992E+3	9.80252800E-1	5.16837314E+0
1.02846487E+3	9.80112800E-1	5.16837077E+0
1.03077491E+3	9.80241100E-1	5.16837484E+0
1.03303335E+3	9.80143900E-1	5.16837792E+0
1.03534830E+3	9.80097300E-1	5.16836808E+0
1.03762965E+3	9.80159600E-1	5.16836097E+0
1.03983640E+3	9.80245000E-1	5.16836115E+0
1.04181261E+3	9.80206100E-1	5.16837620E+0
1.04403119E+3	9.80225600E-1	5.16835268E+0
1.04594462E+3	9.80105100E-1	5.16835590E+0
1.04797220E+3	9.80120700E-1	5.16833135E+0
1.04983781E+3	9.80155700E-1	5.16834763E+0
1.05177213E+3	9.80077800E-1	5.16835917E+0
1.05383299E+3	9.80132300E-1	5.16834522E+0
1.05566807E+3	9.80280000E-1	5.16833627E+0
1.05740999E+3	9.80112800E-1	5.16834937E+0
1.05936309E+3	9.80171100E-1	5.16833757E+0
1.06100631E+3	9.80101200E-1	5.16840505E+0
1.06287318E+3	9.80202300E-1	5.16833766E+0
1.06453139E+3	9.80248900E-1	5.16832800E+0
1.06617398E+3	9.80241100E-1	5.16832053E+0
1.06769971E+3	9.80256700E-1	5.16829813E+0
1.06926485E+3	9.80295600E-1	5.16833461E+0
1.07077996E+3	9.80190600E-1	5.16834774E+0
1.07227778E+3	9.80280000E-1	5.16830866E+0
1.07374062E+3	9.80097300E-1	5.16833186E+0
1.07517920E+3	9.80050700E-1	5.16833455E+0
1.07642067E+3	9.80116700E-1	5.16831557E+0
1.07781443E+3	9.80256700E-1	5.16829370E+0
1.07903339E+3	9.80120700E-1	5.16831771E+0
1.08026955E+3	9.80260600E-1	5.16828802E+0
1.08144812E+3	9.80058500E-1	5.16828507E+0
1.08249940E+3	9.80143900E-1	5.16822737E+0
1.08364744E+3	9.80120700E-1	5.16829006E+0
1.08464914E+3	9.80225600E-1	5.16829565E+0
1.08557091E+3	9.80112800E-1	5.16823725E+0
1.08651812E+3	9.80241100E-1	5.16825259E+0
1.08742531E+3	9.80143900E-1	5.16824335E+0
1.08820254E+3	9.80116700E-1	5.16825798E+0
1.08904056E+3	9.80085700E-1	5.16822614E+0
1.08970239E+3	9.80128400E-1	5.16821791E+0
1.09038146E+3	9.80326700E-1	5.16819059E+0
1.09102771E+3	9.80151700E-1	5.16819157E+0
1.09155962E+3	9.80330600E-1	5.16825798E+0
1.09211219E+3	9.80186700E-1	5.16825999E+0
1.09245708E+3	9.80175100E-1	5.16824331E+0
1.09278916E+3	9.80143900E-1	5.16829644E+0
1.09306055E+3	9.80225600E-1	5.16828208E+0
1.09337106E+3	9.80116700E-1	5.16826956E+0
