# Begin of measurement: 19.07.2019 16:11:26
# R-Sample[Ohm]	I-Coil[A]	U-Magnetometer[V]
# Kei2000	HP E3631A +6V : I	Kei2000
1.09983596E+3	9.80120700E-1	5.17032014E+0
1.09984064E+3	9.80217800E-1	5.17033190E+0
1.09983884E+3	9.80140100E-1	5.17028673E+0
1.09985009E+3	9.80074000E-1	5.17031513E+0
1.09985829E+3	9.80206100E-1	5.17029630E+0
1.09986473E+3	9.80089600E-1	5.17032680E+0
1.09985973E+3	9.80132300E-1	5.17038238E+0
1.09987720E+3	9.80136200E-1	5.17034410E+0
1.09986590E+3	9.80276100E-1	5.17032886E+0
1.09983780E+3	9.80109000E-1	5.17037170E+0
1.09979151E+3	9.80066200E-1	5.17035989E+0
1.09972748E+3	9.80237300E-1	5.17036432E+0
1.09962162E+3	9.80089600E-1	5.17033422E+0
1.09948487E+3	9.80089600E-1	5.17034773E+0
1.09931754E+3	9.80147800E-1	5.17038042E+0
1.09908730E+3	9.80159600E-1	5.17038086E+0
1.09880397E+3	9.80112800E-1	5.17038804E+0
1.09848481E+3	9.80206100E-1	5.17044505E+0
1.09809666E+3	9.80120700E-1	5.17038249E+0
1.09771735E+3	9.80287800E-1	5.17043235E+0
1.09723833E+3	9.80245000E-1	5.17043660E+0
1.09668951E+3	9.80070100E-1	5.17041625E+0
1.09615481E+3	9.80155700E-1	5.17042140E+0
1.09550348E+3	9.80097300E-1	5.17040919E+0
1.09480383E+3	9.80062300E-1	5.17038509E+0
1.09413219E+3	9.80248900E-1	5.17038115E+0
1.09328057E+3	9.80101200E-1	5.17043537E+0
1.09245126E+3	9.80276100E-1	5.17040537E+0
1.09162026E+3	9.80210000E-1	5.17040935E+0
1.09067349E+3	9.80112800E-1	5.17040246E+0
1.08967098E+3	9.80264500E-1	5.17042647E+0
1.08853447E+3	9.80101200E-1	5.17041201E+0
1.08747459E+3	9.80182800E-1	5.17044568E+0
1.08626995E+3	9.80124600E-1	5.17047752E+0
1.08515586E+3	9.80186700E-1	5.17041446E+0
1.08380069E+3	9.80233400E-1	5.17039801E+0
1.08248559E+3	9.80136200E-1	5.17045303E+0
1.08118468E+3	9.80112800E-1	5.17045272E+0
1.07975809E+3	9.80116700E-1	5.17050244E+0
1.07837689E+3	9.80093400E-1	5.17052292E+0
1.07674543E+3	9.80276100E-1	5.17045943E+0
1.07519650E+3	9.80116700E-1	5.17044373E+0
1.07369201E+3	9.80105100E-1	5.17038703E+0
1.07209072E+3	9.80213900E-1	5.17040461E+0
1.07035452E+3	9.80070100E-1	5.17047204E+0
1.06863916E+3	9.80077800E-1	5.17045447E+0
1.06663383E+3	9.80140100E-1	5.17048886E+0
1.06490632E+3	9.80178900E-1	5.17050062E+0
1.06325468E+3	9.80206100E-1	5.17047007E+0
1.06130599E+3	9.80202300E-1	5.17048255E+0
1.05955623E+3	9.80089600E-1	5.17046511E+0
1.05757233E+3	9.80105100E-1	5.17046166E+0
1.05560434E+3	9.80151700E-1	5.17050037E+0
1.05342938E+3	9.80264500E-1	5.17048499E+0
1.05117819E+3	9.80066200E-1	5.17051164E+0
1.04883064E+3	9.80276100E-1	5.17049157E+0
1.04668937E+3	9.80252800E-1	5.17048839E+0
1.04441985E+3	9.80140100E-1	5.17056437E+0
1.04247940E+3	9.80116700E-1	5.17050936E+0
1.04002185E+3	9.80143900E-1	5.17050458E+0
1.03746636E+3	9.80085700E-1	5.17049318E+0
1.03522724E+3	9.80264500E-1	5.17048843E+0
1.03266477E+3	9.80159600E-1	5.17050623E+0
1.03007992E+3	9.80155700E-1	5.17052868E+0
1.02758567E+3	9.80155700E-1	5.17053932E+0
1.02559164E+3	9.80225600E-1	5.17055278E+0
1.02304898E+3	9.80105100E-1	5.17052363E+0
1.02058670E+3	9.80120700E-1	5.17049033E+0
1.01777023E+3	9.80186700E-1	5.17045867E+0
1.01511788E+3	9.80109000E-1	5.17047911E+0
1.01229937E+3	9.80109000E-1	5.17045326E+0
1.00901523E+3	9.80132300E-1	5.17042021E+0
1.00665296E+3	9.80268400E-1	5.17044421E+0
1.00348035E+3	9.80015700E-1	5.17042203E+0
1.00013187E+3	9.80101200E-1	5.17044144E+0
9.97008751E+2	9.80101200E-1	5.17040316E+0
9.94711498E+2	9.80194500E-1	5.17040155E+0
9.92409246E+2	9.80097300E-1	5.17042838E+0
9.89488756E+2	9.80066200E-1	5.17044528E+0
9.86703351E+2	9.80256700E-1	5.17044170E+0
9.83742831E+2	9.80109000E-1	5.17043688E+0
9.80800547E+2	9.80151700E-1	5.17040803E+0
9.77891764E+2	9.80062300E-1	5.17042686E+0
9.74836684E+2	9.80109000E-1	5.17040347E+0
9.71702535E+2	9.80128400E-1	5.17041134E+0
9.68955989E+2	9.80120700E-1	5.17043191E+0
9.66307245E+2	9.80124600E-1	5.17041045E+0
9.63076780E+2	9.80272200E-1	5.17042142E+0
9.59073289E+2	9.80109000E-1	5.17040229E+0
9.55382259E+2	9.80093400E-1	5.17043051E+0
9.52201326E+2	9.80058500E-1	5.17038006E+0
9.49130533E+2	9.80136200E-1	5.17045130E+0
9.46082208E+2	9.80171100E-1	5.17044656E+0
9.43211115E+2	9.80112800E-1	5.17043574E+0
9.40582466E+2	9.80217800E-1	5.17043686E+0
9.38021521E+2	9.80225600E-1	5.17043601E+0
9.34175521E+2	9.80245000E-1	5.17045890E+0
9.30545613E+2	9.80081800E-1	5.17044589E+0
9.27579105E+2	9.80194500E-1	5.17046606E+0
9.23931816E+2	9.80260600E-1	5.17047867E+0
9.20448498E+2	9.80268400E-1	5.17046288E+0
9.18383922E+2	9.80213900E-1	5.17043145E+0
9.16629306E+2	9.80252800E-1	5.17043480E+0
9.12446765E+2	9.80140100E-1	5.17048281E+0
9.11021125E+2	9.80124600E-1	5.17046103E+0
9.07414046E+2	9.80291700E-1	5.17043742E+0
9.03004294E+2	9.80097300E-1	5.17045526E+0
8.98925117E+2	9.80109000E-1	5.17039521E+0
8.95801551E+2	9.80101200E-1	5.17040069E+0
8.92405789E+2	9.80077800E-1	5.17037099E+0
8.89712107E+2	9.80116700E-1	5.17039183E+0
8.86997533E+2	9.80105100E-1	5.17037484E+0
8.83814484E+2	9.80213900E-1	5.17037216E+0
8.80711090E+2	9.80089600E-1	5.17032527E+0
8.78081799E+2	9.80120700E-1	5.17035076E+0
8.73744045E+2	9.80307200E-1	5.17033194E+0
8.69505219E+2	9.80256700E-1	5.17033739E+0
8.66028721E+2	9.80225600E-1	5.17028852E+0
8.63541674E+2	9.80085700E-1	5.17034736E+0
8.61194440E+2	9.80182800E-1	5.17029563E+0
8.56944807E+2	9.80260600E-1	5.17028959E+0
8.53804940E+2	9.80132300E-1	5.17030542E+0
8.49359614E+2	9.80190600E-1	5.17028717E+0
8.45099624E+2	9.80097300E-1	5.17026285E+0
8.41935037E+2	9.80182800E-1	5.17026508E+0
8.39277678E+2	9.80027400E-1	5.17022739E+0
8.36153841E+2	9.80081800E-1	5.17019143E+0
8.32472553E+2	9.80070100E-1	5.17020802E+0
8.30303224E+2	9.80085700E-1	5.17022935E+0
8.26106362E+2	9.80213900E-1	5.17024328E+0
8.23579825E+2	9.80233400E-1	5.17019896E+0
8.23028819E+2	9.80046800E-1	5.17022208E+0
8.19204285E+2	9.80225600E-1	5.17019020E+0
8.15040292E+2	9.80093400E-1	5.17016467E+0
8.11305554E+2	9.80210000E-1	5.17017643E+0
8.08573100E+2	9.80221700E-1	5.17016637E+0
8.06189932E+2	9.80070100E-1	5.17014767E+0
8.02311865E+2	9.80225600E-1	5.17012147E+0
7.97837111E+2	9.80070100E-1	5.17012330E+0
7.94890234E+2	9.80221700E-1	5.17012384E+0
7.91895851E+2	9.80248900E-1	5.17008668E+0
7.89057177E+2	9.80062300E-1	5.17009160E+0
7.84788493E+2	9.80225600E-1	5.17006334E+0
7.81095316E+2	9.80058500E-1	5.16998670E+0
7.78593633E+2	9.80120700E-1	5.16992965E+0
7.75591461E+2	9.80237300E-1	5.16978199E+0
7.73916183E+2	9.80171100E-1	5.17001917E+0
7.71358169E+2	9.80050700E-1	5.17002351E+0
7.67633833E+2	9.80101200E-1	5.17003715E+0
7.64509598E+2	9.80039000E-1	5.17004243E+0
7.60198691E+2	9.80163400E-1	5.17010798E+0
7.57173418E+2	9.80019600E-1	5.16984446E+0
7.55253636E+2	9.80023500E-1	5.17003742E+0
7.51859536E+2	9.80077800E-1	5.16987183E+0
7.49058099E+2	9.80093400E-1	5.17001358E+0
7.44936746E+2	9.80190600E-1	5.17003670E+0
7.42651874E+2	9.80120700E-1	5.17004144E+0
7.40005424E+2	9.80066200E-1	5.17002405E+0
7.35895149E+2	9.80058500E-1	5.17000205E+0
7.32867940E+2	9.80089600E-1	5.16997723E+0
7.30475090E+2	9.80081800E-1	5.16998760E+0
7.27474672E+2	9.80085700E-1	5.16997061E+0
7.24975135E+2	9.80175100E-1	5.16994995E+0
7.22468497E+2	9.80128400E-1	5.16993461E+0
7.20507378E+2	9.80186700E-1	5.16992719E+0
7.18239390E+2	9.80050700E-1	5.16995791E+0
7.13616870E+2	9.80190600E-1	5.16997768E+0
7.09692200E+2	9.80074000E-1	5.16989781E+0
7.07405745E+2	9.80225600E-1	5.16993340E+0
7.03952162E+2	9.80206100E-1	5.16993314E+0
7.01094079E+2	9.80112800E-1	5.16995438E+0
6.99959500E+2	9.80109000E-1	5.16992934E+0
6.96835705E+2	9.80124600E-1	5.16993595E+0
6.94228745E+2	9.80054600E-1	5.16991923E+0
6.91409926E+2	9.80081800E-1	5.16995590E+0
6.88397351E+2	9.80256700E-1	5.16994266E+0
6.85837220E+2	9.80062300E-1	5.16990300E+0
6.83238770E+2	9.80042800E-1	5.16994749E+0
6.81076690E+2	9.80109000E-1	5.16993667E+0
6.77344742E+2	9.80085700E-1	5.16993215E+0
6.74102073E+2	9.80233400E-1	5.16995478E+0
6.72003314E+2	9.80109000E-1	5.16991722E+0
6.68966468E+2	9.80116700E-1	5.16991664E+0
6.66992021E+2	9.80066200E-1	5.16991579E+0
6.67266558E+2	9.80252800E-1	5.16990863E+0
6.64532258E+2	9.80062300E-1	5.16989416E+0
6.62049826E+2	9.80112800E-1	5.16984296E+0
6.57116629E+2	9.80062300E-1	5.16987717E+0
6.53660929E+2	9.80233400E-1	5.16988294E+0
6.51945485E+2	9.80105100E-1	5.16986581E+0
6.49660837E+2	9.80198400E-1	5.16988075E+0
6.46973816E+2	9.80070100E-1	5.16987547E+0
6.44805251E+2	9.80190600E-1	5.16986286E+0
6.40505450E+2	9.80140100E-1	5.16982789E+0
6.40031347E+2	9.80303400E-1	5.16983965E+0
6.36997563E+2	9.80105100E-1	5.16985595E+0
6.33712791E+2	9.80116700E-1	5.16986435E+0
6.32356132E+2	9.80159600E-1	5.16980068E+0
6.29213101E+2	9.80280000E-1	5.16978476E+0
6.26148183E+2	9.80303400E-1	5.16977543E+0
6.22933160E+2	9.80241100E-1	5.16976010E+0
6.20465562E+2	9.80136200E-1	5.16976573E+0
6.19259658E+2	9.80252800E-1	5.16971900E+0
6.16882748E+2	9.80116700E-1	5.16972092E+0
6.15084666E+2	9.80109000E-1	5.16970125E+0
6.13686045E+2	9.80213900E-1	5.16968613E+0
6.10159379E+2	9.80093400E-1	5.16966954E+0
6.08364910E+2	9.80206100E-1	5.16965948E+0
6.06002813E+2	9.80171100E-1	5.16962089E+0
6.04157821E+2	9.80031300E-1	5.16957792E+0
6.02154330E+2	9.80046800E-1	5.16954429E+0
6.01995708E+2	9.80198400E-1	5.16955077E+0
5.99754241E+2	9.80035100E-1	5.16947735E+0
5.95070168E+2	9.80105100E-1	5.16949506E+0
5.92408362E+2	9.80221700E-1	5.16944797E+0
5.90247902E+2	9.80175100E-1	5.16944157E+0
5.87842442E+2	9.80112800E-1	5.16940584E+0
5.85566493E+2	9.80101200E-1	5.16939842E+0
5.83348578E+2	9.80124600E-1	5.16941349E+0
5.81217387E+2	9.80155700E-1	5.16937535E+0
5.78397127E+2	9.80081800E-1	5.16939876E+0
5.76313441E+2	9.80147800E-1	5.16936102E+0
5.75825019E+2	9.80237300E-1	5.16936540E+0
5.73097853E+2	9.80124600E-1	5.16927368E+0
5.71413389E+2	9.80252800E-1	5.16928102E+0
5.69680023E+2	9.80241100E-1	5.16927909E+0
5.67562071E+2	9.80167300E-1	5.16922722E+0
5.66645429E+2	9.80109000E-1	5.16923147E+0
5.63521318E+2	9.80093400E-1	5.16915388E+0
5.60074580E+2	9.80132300E-1	5.16914543E+0
5.58035742E+2	9.80237300E-1	5.16916994E+0
5.56241093E+2	9.80147800E-1	5.16910845E+0
5.54936667E+2	9.80241100E-1	5.16910326E+0
5.51644736E+2	9.80221700E-1	5.16909047E+0
5.49286287E+2	9.80089600E-1	5.16908784E+0
5.47434030E+2	9.80132300E-1	5.16903798E+0
5.45580581E+2	9.80256700E-1	5.16900359E+0
5.42915625E+2	9.80202300E-1	5.16899786E+0
5.41413301E+2	9.80272200E-1	5.16899290E+0
5.40163360E+2	9.80221700E-1	5.16897555E+0
5.38543961E+2	9.80210000E-1	5.16902411E+0
5.36507736E+2	9.80089600E-1	5.16892734E+0
5.34381634E+2	9.80112800E-1	5.16892882E+0
5.32126301E+2	9.80089600E-1	5.16893884E+0
5.31069982E+2	9.80217800E-1	5.16889877E+0
5.29515604E+2	9.80054600E-1	5.16890472E+0
5.27600460E+2	9.80124600E-1	5.16890615E+0
5.26066377E+2	9.80221700E-1	5.16887874E+0
5.23787710E+2	9.80159600E-1	5.16885047E+0
5.22235764E+2	9.80116700E-1	5.16884014E+0
5.20575390E+2	9.80074000E-1	5.16886040E+0
5.18513544E+2	9.80175100E-1	5.16883603E+0
5.17546651E+2	9.80260600E-1	5.16882396E+0
5.15152270E+2	9.80178900E-1	5.16877839E+0
5.12965740E+2	9.80237300E-1	5.16879207E+0
5.12235201E+2	9.80241100E-1	5.16877700E+0
5.09813849E+2	9.80081800E-1	5.16880907E+0
5.08422249E+2	9.80260600E-1	5.16871990E+0
5.06673529E+2	9.80062300E-1	5.16872799E+0
5.06298575E+2	9.80194500E-1	5.16872924E+0
5.04706857E+2	9.80237300E-1	5.16868886E+0
5.02373176E+2	9.80116700E-1	5.16865430E+0
5.00354873E+2	9.80128400E-1	5.16868842E+0
4.98598049E+2	9.80105100E-1	5.16870496E+0
4.97751292E+2	9.80070100E-1	5.16868649E+0
4.96024817E+2	9.80295600E-1	5.16858731E+0
4.94808762E+2	9.80217800E-1	5.16856678E+0
4.94472220E+2	9.80039000E-1	5.16860278E+0
4.94719516E+2	9.80081800E-1	5.16859075E+0
4.94309218E+2	9.80225600E-1	5.16856826E+0
4.93295720E+2	9.80109000E-1	5.16853079E+0
4.92851021E+2	9.80221700E-1	5.16849951E+0
4.93735830E+2	9.80062300E-1	5.16850850E+0
4.93544594E+2	9.80112800E-1	5.16847988E+0
4.92681177E+2	9.80112800E-1	5.16849231E+0
4.92307847E+2	9.80229500E-1	5.16848699E+0
4.92482422E+2	9.80089600E-1	5.16845229E+0
4.92360035E+2	9.80081800E-1	5.16838275E+0
4.92420847E+2	9.80186700E-1	5.16831460E+0
4.91940440E+2	9.80229500E-1	5.16833110E+0
4.92076831E+2	9.80136200E-1	5.16833405E+0
4.92149867E+2	9.80050700E-1	5.16830289E+0
4.91809813E+2	9.80264500E-1	5.16833786E+0
4.91372678E+2	9.80206100E-1	5.16834760E+0
4.91300034E+2	9.80124600E-1	5.16837962E+0
4.91096146E+2	9.80112800E-1	5.16834425E+0
4.91227718E+2	9.80089600E-1	5.16829654E+0
4.91381085E+2	9.80081800E-1	5.16838204E+0
4.91950468E+2	9.80015700E-1	5.16828589E+0
4.91607892E+2	9.80097300E-1	5.16831867E+0
4.92121488E+2	9.80085700E-1	5.16828746E+0
4.91394135E+2	9.80140100E-1	5.16832976E+0
4.91859818E+2	9.80151700E-1	5.16829045E+0
4.91390623E+2	9.80225600E-1	5.16827328E+0
4.91987879E+2	9.80229500E-1	5.16828634E+0
4.91626166E+2	9.80295600E-1	5.16832377E+0
4.91515397E+2	9.80221700E-1	5.16834479E+0
4.91312454E+2	9.80202300E-1	5.16831854E+0
4.91333257E+2	9.80112800E-1	5.16834219E+0
4.92122693E+2	9.80085700E-1	5.16833419E+0
4.92829503E+2	9.80105100E-1	5.16832851E+0
4.92167271E+2	9.80105100E-1	5.16833446E+0
4.91717793E+2	9.80210000E-1	5.16834566E+0
4.91323249E+2	9.80077800E-1	5.16836350E+0
4.91242514E+2	9.80112800E-1	5.16836962E+0
4.90745987E+2	9.80101200E-1	5.16837664E+0
4.90346045E+2	9.80229500E-1	5.16834248E+0
4.90205827E+2	9.80225600E-1	5.16837190E+0
4.90310394E+2	9.80074000E-1	5.16832728E+0
4.90183999E+2	9.80229500E-1	5.16832061E+0
4.90837494E+2	9.80097300E-1	5.16833135E+0
4.90979963E+2	9.80105100E-1	5.16834378E+0
4.91348610E+2	9.80136200E-1	5.16833756E+0
4.91203979E+2	9.80066200E-1	5.16831288E+0
4.91861662E+2	9.80256700E-1	5.16829660E+0
4.91803933E+2	9.80194500E-1	5.16833237E+0
4.92674420E+2	9.80241100E-1	5.16829365E+0
4.92504573E+2	9.80237300E-1	5.16829177E+0
4.92257143E+2	9.80101200E-1	5.16827894E+0
4.91983281E+2	9.80093400E-1	5.16828560E+0
4.91132066E+2	9.80252800E-1	5.16821682E+0
4.91462743E+2	9.80085700E-1	5.16826105E+0
4.91545190E+2	9.80182800E-1	5.16826908E+0
4.91678519E+2	9.80128400E-1	5.16827073E+0
4.91146825E+2	9.80074000E-1	5.16824158E+0
4.91463869E+2	9.80155700E-1	5.16826599E+0
4.91236161E+2	9.80140100E-1	5.16827042E+0
4.90571274E+2	9.80248900E-1	5.16820952E+0
4.91105576E+2	9.80105100E-1	5.16822038E+0
4.92227112E+2	9.80116700E-1	5.16820393E+0
4.92015839E+2	9.80264500E-1	5.16823259E+0
4.92081805E+2	9.80039000E-1	5.16823974E+0
4.91933527E+2	9.80190600E-1	5.16822883E+0
4.91833790E+2	9.80054600E-1	5.16829175E+0
4.91853242E+2	9.80124600E-1	5.16825642E+0
4.92152095E+2	9.80132300E-1	5.16827163E+0
4.92483959E+2	9.80151700E-1	5.16819373E+0
4.92436029E+2	9.80213900E-1	5.16820589E+0
4.92569944E+2	9.80101200E-1	5.16820053E+0
4.92328682E+2	9.80097300E-1	5.16820473E+0
4.91757724E+2	9.80206100E-1	5.16820916E+0
4.91939413E+2	9.80093400E-1	5.16820263E+0
4.92063375E+2	9.80206100E-1	5.16816636E+0
4.91870159E+2	9.80210000E-1	5.16818626E+0
4.91502728E+2	9.80233400E-1	5.16823165E+0
4.91320049E+2	9.80303400E-1	5.16821935E+0
