# Begin of measurement: 19.07.2019 12:17:26
# R-Sample[Ohm]	I-Coil[A]	U-Magnetometer[V]
# Kei2000	HP E3631A +6V : I	Kei2000
1.10311966E+3	-1.77241900E-2	-1.72201130E-1
1.10311655E+3	-1.77514000E-2	-1.72244149E-1
1.10311700E+3	-1.78602300E-2	-1.72279521E-1
1.10311601E+3	-1.78135900E-2	-1.72242539E-1
1.10311790E+3	-1.77047600E-2	-1.72211549E-1
1.10311651E+3	-1.76931000E-2	-1.72210342E-1
1.10311518E+3	-1.78213600E-2	-1.72212891E-1
1.10311553E+3	-1.77047600E-2	-1.72218123E-1
1.10311670E+3	-1.77241900E-2	-1.72186909E-1
1.10311639E+3	-1.78485700E-2	-1.72226664E-1
1.10311427E+3	-1.77164200E-2	-1.72211460E-1
1.10311724E+3	-1.77436300E-2	-1.72214679E-1
1.10311702E+3	-1.78369100E-2	-1.72214366E-1
1.10311108E+3	-1.77086400E-2	-1.72249336E-1
1.10311333E+3	-1.78524600E-2	-1.72231225E-1
1.10311684E+3	-1.77708300E-2	-1.72224607E-1
1.10311670E+3	-1.77825000E-2	-1.72221253E-1
1.10311679E+3	-1.78446900E-2	-1.72237888E-1
1.10311765E+3	-1.78913300E-2	-1.72251080E-1
1.10311873E+3	-1.78330300E-2	-1.72241600E-1
1.10312422E+3	-1.78213600E-2	-1.72264898E-1
1.10311549E+3	-1.78174800E-2	-1.72235205E-1
1.10311727E+3	-1.77047600E-2	-1.72277157E-1
1.10311673E+3	-1.77047600E-2	-1.72296838E-1
1.10311794E+3	-1.78330300E-2	-1.72258648E-1
1.10311700E+3	-1.77203100E-2	-1.72257978E-1
1.10312105E+3	-1.78641200E-2	-1.72261197E-1
1.10311655E+3	-1.78485700E-2	-1.72270454E-1
1.10311952E+3	-1.78952200E-2	-1.72244473E-1
1.10311718E+3	-1.78680100E-2	-1.72261902E-1
1.10311470E+3	-1.77047600E-2	-1.72244462E-1
1.10311515E+3	6.92409600E-2	-1.72228721E-1
1.10309953E+3	6.93497900E-2	2.57294424E-1
1.10310358E+3	6.92720500E-2	2.55199500E-1
1.10310907E+3	6.93303600E-2	2.55208355E-1
1.10310601E+3	6.93031500E-2	2.55242625E-1
1.10310715E+3	6.94586300E-2	2.55250854E-1
1.10311039E+3	6.94197600E-2	2.55232832E-1
1.10310837E+3	6.92837200E-2	2.55217270E-1
1.10311206E+3	6.92293000E-2	2.55255236E-1
1.10311102E+3	6.94314200E-2	2.55250630E-1
1.10311125E+3	6.93070400E-2	2.55215355E-1
1.10311580E+3	6.93536800E-2	2.55234548E-1
1.10311634E+3	6.92876000E-2	2.55234771E-1
1.10311360E+3	6.93847700E-2	2.55243134E-1
1.10311152E+3	6.92876000E-2	2.55201411E-1
1.10311476E+3	6.92798300E-2	2.55224754E-1
1.10311571E+3	6.92720500E-2	2.55206957E-1
1.10311287E+3	6.92837200E-2	2.55217656E-1
1.10311616E+3	6.94586300E-2	2.55204777E-1
1.10311323E+3	6.94275300E-2	2.55220071E-1
1.10311488E+3	6.92565100E-2	2.55197488E-1
1.10311530E+3	6.93342400E-2	2.55191317E-1
1.10311836E+3	6.94275300E-2	2.55207550E-1
1.10311814E+3	6.92798300E-2	2.55214271E-1
1.10311764E+3	6.92370700E-2	2.55201350E-1
1.10311571E+3	6.94119800E-2	2.55188471E-1
1.10311327E+3	6.92992600E-2	2.55170003E-1
1.10311341E+3	6.92603900E-2	2.55163563E-1
1.10311528E+3	6.94158700E-2	2.55214676E-1
1.10311794E+3	6.92837200E-2	2.55194553E-1
1.10311083E+3	6.92603900E-2	2.55227868E-1
1.10311582E+3	6.93808800E-2	2.55222547E-1
1.10311744E+3	6.93225800E-2	2.55228807E-1
1.10311195E+3	6.94275300E-2	2.55237885E-1
1.10311141E+3	6.92526100E-2	2.55232922E-1
1.10311303E+3	6.92720500E-2	2.55217941E-1
1.10311496E+3	6.92798300E-2	2.55201037E-1
1.10311699E+3	6.92565100E-2	2.55203542E-1
1.10311749E+3	6.92681700E-2	2.55211725E-1
1.10311686E+3	6.94042100E-2	2.55180646E-1
1.10311528E+3	6.93031500E-2	2.55193077E-1
1.10311830E+3	6.94469600E-2	2.55227466E-1
1.10311550E+3	6.92953800E-2	2.55215929E-1
1.10311886E+3	6.92798300E-2	2.55189902E-1
